Data from Subt2_16-58-14-952.txt Node
Date: Wed Dec 05 16:58:14 CET 2018
User: Artur
Spectrometer: FLMS13639
Trigger mode: 0
Integration Time (sec): 1,000000E-1
Scans to average: 1
Electric dark correction enabled: true
Nonlinearity correction enabled: false
Boxcar width: 0
XAxis mode: Wavelengths
Number of Pixels in Spectrum: 2048
>>>>>Begin Spectral Data<<<<<
339,73	1,1
340,109	1,1
340,488	1,1
340,866	-79,18
341,245	-23,99
341,624	-46,57
342,002	86,4
342,381	-51,59
342,759	63,82
343,138	21,17
343,516	-11,45
343,894	66,33
344,273	18,66
344,651	58,8
345,029	-16,46
345,408	-29,01
345,786	-94,24
346,164	-74,17
346,542	33,71
346,92	-34,03
347,298	8,62
347,676	56,29
348,054	-29,01
348,432	26,19
348,81	-29,01
349,188	16,15
349,566	-104,27
349,944	38,73
350,322	71,34
350,699	38,73
351,077	-23,99
351,455	-89,22
351,832	-79,18
352,21	3,61
352,588	108,98
352,965	41,24
353,343	-76,68
353,72	38,73
354,098	-41,55
354,475	-1,41
354,852	43,75
355,23	-44,06
355,607	3,61
355,984	-16,46
356,361	61,31
356,739	-71,66
357,116	-69,15
357,493	-49,08
357,87	-64,13
358,247	-101,76
358,624	81,38
359,001	-46,57
359,378	38,73
359,755	-54,1
360,132	-1,41
360,508	-66,64
360,885	53,78
361,262	-44,06
361,639	111,49
362,015	-44,06
362,392	-61,62
362,769	16,15
363,145	-3,92
363,522	-91,73
363,898	26,19
364,275	11,13
364,651	-29,01
365,028	-23,99
365,404	134,06
365,78	-94,24
366,157	-16,46
366,533	-91,73
366,909	56,29
367,285	-101,76
367,661	-99,25
368,038	-139,4
368,414	-29,01
368,79	-29,01
369,166	93,92
369,542	-121,83
369,918	-66,64
370,294	63,82
370,669	8,62
371,045	71,34
371,421	6,12
371,797	-79,18
372,172	6,12
372,548	61,31
372,924	43,75
373,299	-13,96
373,675	-36,53
374,05	-49,08
374,426	28,69
374,801	31,2
375,177	6,12
375,552	-39,04
375,928	38,73
376,303	21,17
376,678	-6,43
377,053	-34,03
377,429	-56,6
377,804	-36,53
378,179	-41,55
378,554	26,19
378,929	-34,03
379,304	-21,48
379,679	8,62
380,054	-41,55
380,429	-18,97
380,804	61,31
381,179	3,61
381,553	46,26
381,928	-21,48
382,303	-116,82
382,678	8,62
383,052	18,66
383,427	1,1
383,801	-26,5
384,176	23,68
384,551	-49,08
384,925	-51,59
385,299	-86,71
385,674	-36,53
386,048	71,34
386,422	-36,53
386,797	-76,68
387,171	43,75
387,545	-64,13
387,919	-61,62
388,293	-101,76
388,668	-56,6
389,042	18,66
389,416	-3,92
389,79	21,17
390,164	38,73
390,537	6,12
390,911	88,91
391,285	-34,03
391,659	18,66
392,033	21,17
392,406	-59,11
392,78	-44,06
393,154	6,12
393,527	61,31
393,901	-21,48
394,274	-11,45
394,648	-13,96
395,021	1,1
395,395	33,71
395,768	-26,5
396,142	-69,15
396,515	36,22
396,888	3,61
397,261	-29,01
397,635	33,71
398,008	58,8
398,381	-29,01
398,754	-34,03
399,127	-86,71
399,5	-51,59
399,873	-1,41
400,246	-16,46
400,619	81,38
400,991	8,62
401,364	-59,11
401,737	-84,2
402,11	28,69
402,482	3,61
402,855	1,1
403,228	-31,52
403,6	-64,13
403,973	-36,53
404,345	6,12
404,718	-51,59
405,09	1,1
405,463	-3,92
405,835	-41,55
406,207	-99,25
406,58	-134,38
406,952	-61,62
407,324	56,29
407,696	-11,45
408,068	83,89
408,44	46,26
408,812	-36,53
409,184	16,15
409,556	43,75
409,928	-69,15
410,3	-49,08
410,672	-26,5
411,044	31,2
411,416	81,38
411,787	-21,48
412,159	53,78
412,531	-46,57
412,902	-46,57
413,274	83,89
413,645	6,12
414,017	21,17
414,388	-3,92
414,76	6,12
415,131	-3,92
415,503	-89,22
415,874	38,73
416,245	-39,04
416,616	-64,13
416,987	-94,24
417,359	-6,43
417,73	43,75
418,101	103,96
418,472	11,13
418,843	-39,04
419,214	-23,99
419,585	-13,96
419,956	31,2
420,326	-1,41
420,697	3,61
421,068	-74,17
421,439	16,15
421,809	73,85
422,18	-46,57
422,551	-1,41
422,921	-54,1
423,292	-59,11
423,662	-69,15
424,033	13,64
424,403	-39,04
424,773	-59,11
425,144	-86,71
425,514	-81,69
425,884	-51,59
426,254	-31,52
426,624	-6,43
426,995	113,99
427,365	48,76
427,735	71,34
428,105	-114,31
428,475	63,82
428,845	-26,5
429,214	-49,08
429,584	38,73
429,954	-29,01
430,324	58,8
430,694	-71,66
431,063	58,8
431,433	-6,43
431,803	-6,43
432,172	38,73
432,542	-3,92
432,911	-34,03
433,281	-13,96
433,65	-16,46
434,019	23,68
434,389	-18,97
434,758	36,22
435,127	-49,08
435,496	26,19
435,866	-36,53
436,235	-21,48
436,604	-99,25
436,973	-66,64
437,342	-69,15
437,711	-44,06
438,08	13,64
438,449	-51,59
438,817	91,41
439,186	-21,48
439,555	31,2
439,924	61,31
440,292	-109,29
440,661	-61,62
441,03	-106,78
441,398	48,76
441,767	-151,94
442,135	-16,46
442,503	-109,29
442,872	-21,48
443,24	18,66
443,609	-59,11
443,977	58,8
444,345	-126,85
444,713	-8,94
445,081	76,36
445,449	63,82
445,818	51,27
446,186	106,47
446,554	3,61
446,921	11,13
447,289	-29,01
447,657	-16,46
448,025	-13,96
448,393	18,66
448,761	3,61
449,128	-41,55
449,496	98,94
449,864	-13,96
450,231	26,19
450,599	-126,85
450,966	26,19
451,334	-29,01
451,701	-114,31
452,068	26,19
452,436	-104,27
452,803	-23,99
453,17	-81,69
453,537	56,29
453,905	-13,96
454,272	-13,96
454,639	-8,94
455,006	-94,24
455,373	-89,22
455,74	-94,24
456,107	-29,01
456,473	93,92
456,84	-13,96
457,207	-46,57
457,574	-13,96
457,941	113,99
458,307	-101,76
458,674	6,12
459,04	-74,17
459,407	31,2
459,773	-66,64
460,14	-3,92
460,506	11,13
460,873	106,47
461,239	78,87
461,605	-104,27
461,972	-34,03
462,338	28,69
462,704	41,24
463,07	46,26
463,436	-59,11
463,802	41,24
464,168	31,2
464,534	-11,45
464,9	36,22
465,266	33,71
465,632	23,68
465,997	-16,46
466,363	-44,06
466,729	26,19
467,094	3,61
467,46	-106,78
467,826	-21,48
468,191	-13,96
468,557	-23,99
468,922	-116,82
469,288	-71,66
469,653	-59,11
470,018	66,33
470,383	-104,27
470,749	21,17
471,114	-44,06
471,479	-86,71
471,844	-114,31
472,209	-18,97
472,574	-66,64
472,939	-18,97
473,304	-71,66
473,669	51,27
474,034	13,64
474,399	-11,45
474,763	-1,41
475,128	26,19
475,493	-21,48
475,857	-46,57
476,222	33,71
476,587	-81,69
476,951	-164,48
477,316	-71,66
477,68	-69,15
478,044	38,73
478,409	-1,41
478,773	-44,06
479,137	56,29
479,501	-76,68
479,866	-29,01
480,23	71,34
480,594	-74,17
480,958	41,24
481,322	3,61
481,686	18,66
482,05	-46,57
482,413	31,2
482,777	-26,5
483,141	-26,5
483,505	-34,03
483,868	11,13
484,232	-36,53
484,596	6,12
484,959	8,62
485,323	111,49
485,686	-121,83
486,05	23,68
486,413	-3,92
486,776	-69,15
487,14	-31,52
487,503	-8,94
487,866	-39,04
488,229	21,17
488,592	33,71
488,956	-34,03
489,319	13,64
489,682	8,62
490,045	-106,78
490,407	3,61
490,77	16,15
491,133	-29,01
491,496	-59,11
491,859	-21,48
492,221	6,12
492,584	-34,03
492,947	-26,5
493,309	68,84
493,672	58,8
494,034	16,15
494,396	-69,15
494,759	8,62
495,121	-23,99
495,483	31,2
495,846	46,26
496,208	-11,45
496,57	-71,66
496,932	-89,22
497,294	53,78
497,656	41,24
498,018	8,62
498,38	-23,99
498,742	124,03
499,104	-6,43
499,466	43,75
499,827	-66,64
500,189	-69,15
500,551	1,1
500,912	56,29
501,274	18,66
501,636	-51,59
501,997	68,84
502,359	-6,43
502,72	11,13
503,081	-23,99
503,443	56,29
503,804	3,61
504,165	-6,43
504,526	33,71
504,887	31,2
505,249	36,22
505,61	-26,5
505,971	-21,48
506,332	53,78
506,692	38,73
507,053	131,56
507,414	63,82
507,775	91,41
508,136	124,03
508,496	83,89
508,857	18,66
509,218	28,69
509,578	78,87
509,939	124,03
510,299	151,63
510,66	48,76
511,02	38,73
511,38	33,71
511,741	33,71
512,101	3,61
512,461	-56,6
512,821	68,84
513,181	28,69
513,541	36,22
513,901	113,99
514,261	18,66
514,621	36,22
514,981	83,89
515,341	26,19
515,701	-91,73
516,06	8,62
516,42	-8,94
516,78	-11,45
517,139	46,26
517,499	91,41
517,859	66,33
518,218	-46,57
518,577	76,36
518,937	156,64
519,296	98,94
519,655	11,13
520,015	56,29
520,374	116,5
520,733	96,43
521,092	96,43
521,451	13,64
521,81	171,7
522,169	-44,06
522,528	66,33
522,887	-23,99
523,246	8,62
523,605	3,61
523,963	-18,97
524,322	181,73
524,681	136,57
525,039	43,75
525,398	66,33
525,756	-16,46
526,115	48,76
526,473	51,27
526,832	46,26
527,19	76,36
527,548	131,56
527,906	116,5
528,265	38,73
528,623	101,45
528,981	96,43
529,339	23,68
529,697	61,31
530,055	66,33
530,413	8,62
530,771	31,2
531,128	-71,66
531,486	38,73
531,844	81,38
532,202	169,19
532,559	93,92
532,917	108,98
533,274	31,2
533,632	53,78
533,989	66,33
534,347	161,66
534,704	13,64
535,061	113,99
535,419	36,22
535,776	-13,96
536,133	73,85
536,49	136,57
536,847	76,36
537,204	81,38
537,561	86,4
537,918	126,54
538,275	46,26
538,632	96,43
538,989	83,89
539,346	11,13
539,702	36,22
540,059	-18,97
540,415	116,5
540,772	-26,5
541,129	23,68
541,485	216,85
541,841	103,96
542,198	36,22
542,554	66,33
542,91	179,22
543,267	141,59
543,623	13,64
543,979	176,71
544,335	267,03
544,691	186,75
545,047	129,05
545,403	136,57
545,759	186,75
546,115	231,91
546,471	166,68
546,826	279,57
547,182	131,56
547,538	166,68
547,893	103,96
548,249	262,01
548,605	164,17
548,96	204,31
549,315	287,1
549,671	251,98
550,026	169,19
550,381	156,64
550,737	171,7
551,092	332,26
551,447	254,49
551,802	229,4
552,157	382,44
552,512	314,7
552,867	389,96
553,222	236,93
553,577	427,59
553,932	389,96
554,286	387,45
554,641	475,26
554,996	357,35
555,35	447,66
555,705	402,51
556,06	427,59
556,414	460,21
556,768	437,63
557,123	522,93
557,477	425,09
557,831	472,75
558,186	588,16
558,54	427,59
558,894	565,58
559,248	655,9
559,602	655,9
559,956	588,16
560,31	658,4
560,664	643,35
561,018	643,35
561,372	701,05
561,725	673,46
562,079	688,51
562,433	811,44
562,786	876,67
563,14	798,9
563,493	931,86
563,847	919,32
564,2	851,58
564,554	944,41
564,907	864,13
565,26	894,23
565,614	954,44
565,967	1074,87
566,32	992,08
566,673	1042,25
567,026	1142,6
567,379	1042,25
567,732	1177,73
568,085	1027,2
568,438	1197,8
568,79	1265,54
569,143	1172,71
569,496	1330,76
569,848	1365,89
570,201	1265,54
570,554	1237,94
570,906	1320,73
571,259	1395,99
571,611	1423,59
571,963	1544,01
572,316	1508,89
572,668	1546,52
573,02	1498,85
573,372	1521,43
573,724	1671,96
574,076	1549,03
574,428	1468,75
574,78	1769,81
575,132	1682
575,484	1707,08
575,836	1641,86
576,188	1747,23
576,539	1734,68
576,891	1832,53
577,243	1990,58
577,594	1862,63
577,946	1855,1
578,297	1980,54
578,649	1867,65
579	1993,09
579,351	2018,18
579,703	2055,81
580,054	1930,37
580,405	1980,54
580,756	1988,07
581,107	2010,65
581,458	1897,75
581,809	1968
582,16	1940,4
582,511	1955,46
582,862	2080,9
583,212	2116,02
583,563	2005,63
583,914	1897,75
584,264	2181,25
584,615	2053,3
584,966	2075,88
585,316	1985,56
585,666	1910,3
586,017	1988,07
586,367	1887,72
586,717	1905,28
587,068	1945,42
587,418	1840,05
587,768	1890,23
588,118	1784,86
588,468	1799,91
588,818	1797,4
589,168	1679,49
589,518	1651,89
589,868	1676,98
590,217	1644,36
590,567	1659,42
590,917	1676,98
591,266	1541,5
591,616	1554,05
591,966	1486,31
592,315	1383,45
592,664	1458,71
593,014	1385,96
593,363	1368,4
593,712	1303,17
594,062	1378,43
594,411	1200,31
594,76	1333,27
595,109	1192,78
595,458	1175,22
595,807	1170,2
596,156	1059,81
596,505	1057,3
596,854	959,46
597,202	1022,18
597,551	1039,74
597,9	939,39
598,248	821,48
598,597	829
598,945	821,48
599,294	829
599,642	708,58
599,991	881,69
600,339	663,42
600,687	608,23
601,035	698,55
601,384	778,83
601,732	741,2
602,08	630,81
602,428	532,96
602,776	648,37
603,124	683,49
603,471	650,88
603,819	550,53
604,167	550,53
604,515	507,88
604,862	500,35
605,21	605,72
605,557	487,81
605,905	467,74
606,252	397,49
606,6	475,26
606,947	334,77
607,294	327,24
607,642	432,61
607,989	422,58
608,336	417,56
608,683	394,98
609,03	282,08
609,377	339,79
609,724	284,59
610,071	392,47
610,418	384,94
610,765	299,65
611,111	299,65
611,458	374,91
611,805	209,33
612,151	304,66
612,498	312,19
612,844	282,08
613,191	257
613,537	279,57
613,883	159,15
614,23	334,77
614,576	334,77
614,922	126,54
615,268	264,52
615,614	304,66
615,96	146,61
616,306	264,52
616,652	146,61
616,998	108,98
617,344	136,57
617,689	146,61
618,035	277,07
618,381	201,8
618,726	93,92
619,072	191,77
619,417	161,66
619,763	101,45
620,108	124,03
620,453	164,17
620,799	149,12
621,144	239,43
621,489	164,17
621,834	209,33
622,179	226,89
622,524	108,98
622,869	181,73
623,214	181,73
623,559	206,82
623,904	91,41
624,249	93,92
624,593	53,78
624,938	164,17
625,283	-23,99
625,627	134,06
625,972	91,41
626,316	88,91
626,66	141,59
627,005	16,15
627,349	98,94
627,693	73,85
628,037	73,85
628,382	63,82
628,726	71,34
629,07	36,22
629,414	61,31
629,757	83,89
630,101	151,63
630,445	68,84
630,789	51,27
631,133	73,85
631,476	86,4
631,82	33,71
632,163	58,8
632,507	73,85
632,85	98,94
633,194	16,15
633,537	48,76
633,88	113,99
634,224	88,91
634,567	1,1
634,91	71,34
635,253	-1,41
635,596	8,62
635,939	66,33
636,282	88,91
636,625	-96,75
636,967	-86,71
637,31	58,8
637,653	141,59
637,996	-21,48
638,338	48,76
638,681	28,69
639,023	68,84
639,366	58,8
639,708	-34,03
640,05	-66,64
640,393	41,24
640,735	-1,41
641,077	166,68
641,419	-59,11
641,761	68,84
642,103	58,8
642,445	-76,68
642,787	1,1
643,129	28,69
643,471	21,17
643,812	26,19
644,154	-104,27
644,496	48,76
644,837	56,29
645,179	28,69
645,52	41,24
645,862	16,15
646,203	3,61
646,544	-8,94
646,886	51,27
647,227	3,61
647,568	16,15
647,909	-6,43
648,25	-56,6
648,591	38,73
648,932	-34,03
649,273	81,38
649,614	144,1
649,954	28,69
650,295	18,66
650,636	-84,2
650,976	-21,48
651,317	121,52
651,657	53,78
651,998	13,64
652,338	36,22
652,679	-46,57
653,019	-96,75
653,359	-124,34
653,699	151,63
654,039	-3,92
654,379	-109,29
654,719	-39,04
655,059	-29,01
655,399	13,64
655,739	61,31
656,079	-26,5
656,419	23,68
656,758	-36,53
657,098	-29,01
657,437	-11,45
657,777	38,73
658,116	43,75
658,456	-44,06
658,795	-21,48
659,135	-26,5
659,474	21,17
659,813	51,27
660,152	-44,06
660,491	66,33
660,83	66,33
661,169	68,84
661,508	8,62
661,847	-59,11
662,186	26,19
662,524	21,17
662,863	-86,71
663,202	6,12
663,54	-1,41
663,879	-69,15
664,217	63,82
664,556	-1,41
664,894	86,4
665,233	-44,06
665,571	-21,48
665,909	139,08
666,247	46,26
666,585	-44,06
666,923	-69,15
667,261	18,66
667,599	-96,75
667,937	21,17
668,275	41,24
668,613	-31,52
668,95	28,69
669,288	71,34
669,626	113,99
669,963	-1,41
670,301	-126,85
670,638	36,22
670,975	68,84
671,313	3,61
671,65	53,78
671,987	66,33
672,324	41,24
672,661	18,66
672,998	-59,11
673,335	3,61
673,672	-54,1
674,009	8,62
674,346	-6,43
674,683	8,62
675,019	13,64
675,356	-54,1
675,693	58,8
676,029	-39,04
676,366	-6,43
676,702	-84,2
677,039	-23,99
677,375	91,41
677,711	113,99
678,047	18,66
678,383	66,33
678,72	46,26
679,056	38,73
679,392	-31,52
679,727	88,91
680,063	-13,96
680,399	-39,04
680,735	18,66
681,071	3,61
681,406	-51,59
681,742	-89,22
682,077	73,85
682,413	-49,08
682,748	13,64
683,084	-18,97
683,419	38,73
683,754	-56,6
684,089	-11,45
684,424	41,24
684,76	23,68
685,095	73,85
685,429	-6,43
685,764	11,13
686,099	-6,43
686,434	66,33
686,769	-41,55
687,103	58,8
687,438	-46,57
687,773	8,62
688,107	131,56
688,442	-51,59
688,776	-11,45
689,11	8,62
689,445	-44,06
689,779	13,64
690,113	3,61
690,447	-46,57
690,781	63,82
691,115	-39,04
691,449	-21,48
691,783	-41,55
692,117	-29,01
692,451	-29,01
692,784	-16,46
693,118	13,64
693,452	46,26
693,785	-46,57
694,119	38,73
694,452	36,22
694,786	-26,5
695,119	1,1
695,452	78,87
695,785	-64,13
696,118	61,31
696,452	-31,52
696,785	-31,52
697,118	6,12
697,45	6,12
697,783	124,03
698,116	-29,01
698,449	-86,71
698,782	-18,97
699,114	46,26
699,447	-124,34
699,779	-6,43
700,112	-74,17
700,444	-86,71
700,776	71,34
701,109	-49,08
701,441	-29,01
701,773	86,4
702,105	26,19
702,437	48,76
702,769	-56,6
703,101	8,62
703,433	-13,96
703,765	-34,03
704,097	33,71
704,428	21,17
704,76	113,99
705,092	91,41
705,423	-18,97
705,755	28,69
706,086	8,62
706,417	41,24
706,749	-46,57
707,08	-41,55
707,411	-34,03
707,742	53,78
708,073	-41,55
708,404	-18,97
708,735	-41,55
709,066	-29,01
709,397	-29,01
709,728	23,68
710,059	-1,41
710,389	-51,59
710,72	18,66
711,05	103,96
711,381	-3,92
711,711	-69,15
712,042	-46,57
712,372	88,91
712,702	16,15
713,033	-94,24
713,363	23,68
713,693	-3,92
714,023	26,19
714,353	16,15
714,683	-8,94
715,013	86,4
715,342	46,26
715,672	-18,97
716,002	-59,11
716,331	-41,55
716,661	26,19
716,99	51,27
717,32	108,98
717,649	-11,45
717,979	31,2
718,308	16,15
718,637	73,85
718,966	-36,53
719,295	56,29
719,624	-6,43
719,953	31,2
720,282	18,66
720,611	-64,13
720,94	-13,96
721,269	76,36
721,597	13,64
721,926	-69,15
722,254	46,26
722,583	46,26
722,911	-144,41
723,24	-79,18
723,568	-1,41
723,896	-79,18
724,225	36,22
724,553	-8,94
724,881	-26,5
725,209	16,15
725,537	-26,5
725,865	-18,97
726,193	78,87
726,52	-13,96
726,848	11,13
727,176	-121,83
727,503	-1,41
727,831	-11,45
728,158	21,17
728,486	129,05
728,813	-11,45
729,14	21,17
729,468	-64,13
729,795	-46,57
730,122	71,34
730,449	1,1
730,776	-61,62
731,103	-119,33
731,43	21,17
731,757	169,19
732,084	144,1
732,41	-94,24
732,737	3,61
733,064	78,87
733,39	-41,55
733,717	28,69
734,043	-114,31
734,369	-84,2
734,696	-76,68
735,022	-31,52
735,348	-6,43
735,674	66,33
736	-3,92
736,326	-23,99
736,652	-36,53
736,978	46,26
737,304	-44,06
737,63	-18,97
737,955	56,29
738,281	36,22
738,607	-44,06
738,932	-89,22
739,258	-56,6
739,583	151,63
739,908	71,34
740,234	-3,92
740,559	-81,69
740,884	-29,01
741,209	43,75
741,534	68,84
741,859	71,34
742,184	23,68
742,509	-16,46
742,834	-16,46
743,158	28,69
743,483	-36,53
743,808	23,68
744,132	-3,92
744,457	26,19
744,781	28,69
745,106	6,12
745,43	-34,03
745,754	71,34
746,078	61,31
746,402	38,73
746,727	21,17
747,051	-23,99
747,375	-31,52
747,698	-66,64
748,022	-34,03
748,346	-41,55
748,67	26,19
748,993	-44,06
749,317	-84,2
749,64	1,1
749,964	-11,45
750,287	-44,06
750,611	-34,03
750,934	36,22
751,257	23,68
751,58	-26,5
751,903	71,34
752,226	76,36
752,549	-104,27
752,872	8,62
753,195	11,13
753,518	-96,75
753,841	36,22
754,163	-39,04
754,486	-23,99
754,809	103,96
755,131	6,12
755,453	31,2
755,776	-156,96
756,098	-34,03
756,42	58,8
756,743	71,34
757,065	-41,55
757,387	6,12
757,709	11,13
758,031	-81,69
758,352	28,69
758,674	-26,5
758,996	21,17
759,318	-61,62
759,639	48,76
759,961	103,96
760,282	1,1
760,604	-21,48
760,925	18,66
761,247	26,19
761,568	73,85
761,889	-16,46
762,21	-79,18
762,531	21,17
762,852	-8,94
763,173	66,33
763,494	-31,52
763,815	8,62
764,136	-81,69
764,456	13,64
764,777	-44,06
765,098	-94,24
765,418	-56,6
765,738	38,73
766,059	113,99
766,379	-74,17
766,699	26,19
767,02	18,66
767,34	-41,55
767,66	-3,92
767,98	-39,04
768,3	-8,94
768,62	-64,13
768,94	-8,94
769,259	-139,4
769,579	-56,6
769,899	-36,53
770,218	21,17
770,538	38,73
770,857	88,91
771,177	23,68
771,496	-189,57
771,815	78,87
772,134	8,62
772,454	26,19
772,773	18,66
773,092	-16,46
773,411	73,85
773,729	-26,5
774,048	-64,13
774,367	-71,66
774,686	-34,03
775,004	-46,57
775,323	43,75
775,642	6,12
775,96	-44,06
776,278	46,26
776,597	8,62
776,915	18,66
777,233	-124,34
777,551	-23,99
777,869	26,19
778,187	13,64
778,505	-66,64
778,823	-49,08
779,141	66,33
779,459	21,17
779,777	46,26
780,094	41,24
780,412	-76,68
780,729	36,22
781,047	-61,62
781,364	71,34
781,681	-21,48
781,999	-41,55
782,316	121,52
782,633	-44,06
782,95	3,61
783,267	48,76
783,584	-56,6
783,901	-71,66
784,218	-154,45
784,534	23,68
784,851	33,71
785,168	-16,46
785,484	28,69
785,801	-39,04
786,117	-172,01
786,434	-41,55
