Data from Subt2_13-34-57-401.txt Node
Date: Thu Dec 06 13:34:57 CET 2018
User: Artur
Spectrometer: FLMS13639
Trigger mode: 0
Integration Time (sec): 1,000000E-1
Scans to average: 1
Electric dark correction enabled: true
Nonlinearity correction enabled: false
Boxcar width: 0
XAxis mode: Wavelengths
Number of Pixels in Spectrum: 2048
>>>>>Begin Spectral Data<<<<<
339,73	36,85
340,109	36,85
340,488	36,85
340,866	54,41
341,245	51,9
341,624	34,34
342,002	-13,33
342,381	6,74
342,759	-45,94
343,138	16,78
343,516	-98,63
343,894	24,3
344,273	64,44
344,651	-23,36
345,029	-15,84
345,408	26,81
345,786	66,95
346,164	97,06
346,542	-71,03
346,92	31,83
347,298	-101,14
347,676	-61
348,054	4,23
348,432	26,81
348,81	21,8
349,188	-30,89
349,566	31,83
349,944	74,48
350,322	104,59
350,699	87,02
351,077	1,72
351,455	-128,73
351,832	-23,36
352,21	41,87
352,588	74,48
352,965	46,88
353,343	-28,38
353,72	59,43
354,098	-88,59
354,475	69,46
354,852	4,23
355,23	-13,33
355,607	-15,84
355,984	112,11
356,361	39,36
356,739	49,39
357,116	-35,91
357,493	-73,54
357,87	46,88
358,247	-10,82
358,624	-28,38
359,001	66,95
359,378	-5,8
359,755	-66,01
360,132	-28,38
360,508	132,18
360,885	-5,8
361,262	-108,66
361,639	-8,31
362,015	61,94
362,392	-63,5
362,769	109,6
363,145	61,94
363,522	-93,61
363,898	-23,36
364,275	-66,01
364,651	-5,8
365,028	-28,38
365,404	-15,84
365,78	4,23
366,157	39,36
366,533	11,76
366,909	137,2
367,285	41,87
367,661	21,8
368,038	69,46
368,414	76,99
368,79	-5,8
369,166	76,99
369,542	142,22
369,918	61,94
370,294	-40,92
370,669	66,95
371,045	-81,07
371,421	-18,35
371,797	-28,38
372,172	-25,87
372,548	-10,82
372,924	-10,82
373,299	26,81
373,675	-63,5
374,05	-38,42
374,426	54,41
374,801	79,5
375,177	24,3
375,552	-71,03
375,928	-28,38
376,303	99,57
376,678	16,78
377,053	-30,89
377,429	-91,1
377,804	-83,57
378,179	4,23
378,554	-61
378,929	-83,57
379,304	-20,85
379,679	-40,92
380,054	46,88
380,429	-13,33
380,804	-71,03
381,179	-0,78
381,553	-15,84
381,928	19,29
382,303	-50,96
382,678	14,27
383,052	19,29
383,427	64,44
383,801	71,97
384,176	39,36
384,551	-28,38
384,925	4,23
385,299	-50,96
385,674	41,87
386,048	31,83
386,422	-18,35
386,797	6,74
387,171	11,76
387,545	16,78
387,919	-3,29
388,293	-28,38
388,668	14,27
389,042	1,72
389,416	4,23
389,79	-40,92
390,164	-43,43
390,537	-68,52
390,911	-33,4
391,285	6,74
391,659	-28,38
392,033	-50,96
392,406	26,81
392,78	-10,82
393,154	9,25
393,527	21,8
393,901	21,8
394,274	-20,85
394,648	64,44
395,021	-113,68
395,395	-8,31
395,768	-33,4
396,142	-48,45
396,515	41,87
396,888	9,25
397,261	16,78
397,635	-50,96
398,008	61,94
398,381	-23,36
398,754	34,34
399,127	-61
399,5	-8,31
399,873	11,76
400,246	-81,07
400,619	-18,35
400,991	-25,87
401,364	11,76
401,737	-33,4
402,11	-15,84
402,482	-58,49
402,855	-86,08
403,228	-23,36
403,6	14,27
403,973	14,27
404,345	-43,43
404,718	-28,38
405,09	9,25
405,463	-23,36
405,835	-5,8
406,207	24,3
406,58	51,9
406,952	-18,35
407,324	-45,94
407,696	66,95
408,068	29,32
408,44	-48,45
408,812	-48,45
409,184	69,46
409,556	49,39
409,928	36,85
410,3	41,87
410,672	61,94
411,044	4,23
411,416	69,46
411,787	104,59
412,159	-13,33
412,531	31,83
412,902	104,59
413,274	56,92
413,645	61,94
414,017	-45,94
414,388	46,88
414,76	-13,33
415,131	79,5
415,503	-28,38
415,874	-13,33
416,245	4,23
416,616	-5,8
416,987	56,92
417,359	-23,36
417,73	49,39
418,101	6,74
418,472	59,43
418,843	-20,85
419,214	104,59
419,585	99,57
419,956	-66,01
420,326	-55,98
420,697	114,62
421,068	71,97
421,439	71,97
421,809	82,01
422,18	1,72
422,551	-58,49
422,921	-83,57
423,292	11,76
423,662	36,85
424,033	82,01
424,403	21,8
424,773	24,3
425,144	-18,35
425,514	4,23
425,884	21,8
426,254	-8,31
426,624	-91,1
426,995	142,22
427,365	54,41
427,735	16,78
428,105	-13,33
428,475	11,76
428,845	-58,49
429,214	4,23
429,584	29,32
429,954	59,43
430,324	51,9
430,694	1,72
431,063	36,85
431,433	61,94
431,803	26,81
432,172	16,78
432,542	112,11
432,911	-50,96
433,281	11,76
433,65	29,32
434,019	19,29
434,389	11,76
434,758	-53,47
435,127	-48,45
435,496	-55,98
435,866	-40,92
436,235	6,74
436,604	-15,84
436,973	97,06
437,342	-20,85
437,711	-0,78
438,08	-15,84
438,449	74,48
438,817	104,59
439,186	-55,98
439,555	51,9
439,924	36,85
440,292	41,87
440,661	-18,35
441,03	124,66
441,398	-33,4
441,767	39,36
442,135	16,78
442,503	-18,35
442,872	4,23
443,24	-35,91
443,609	64,44
443,977	64,44
444,345	26,81
444,713	61,94
445,081	-45,94
445,449	-35,91
445,818	-83,57
446,186	-40,92
446,554	-103,64
446,921	92,04
447,289	16,78
447,657	-30,89
448,025	4,23
448,393	-0,78
448,761	21,8
449,128	74,48
449,496	46,88
449,864	54,41
450,231	14,27
450,599	117,13
450,966	-3,29
451,334	-15,84
451,701	94,55
452,068	122,15
452,436	-5,8
452,803	24,3
453,17	82,01
453,537	14,27
453,905	16,78
454,272	-33,4
454,639	-71,03
455,006	-63,5
455,373	19,29
455,74	4,23
456,107	89,53
456,473	69,46
456,84	-101,14
457,207	16,78
457,574	64,44
457,941	-76,05
458,307	152,25
458,674	41,87
459,04	-0,78
459,407	11,76
459,773	44,37
460,14	36,85
460,506	1,72
460,873	61,94
461,239	71,97
461,605	36,85
461,972	-40,92
462,338	-3,29
462,704	-38,42
463,07	-8,31
463,436	-86,08
463,802	-48,45
464,168	-30,89
464,534	21,8
464,9	-83,57
465,266	-141,28
465,632	-68,52
465,997	76,99
466,363	76,99
466,729	-20,85
467,094	-23,36
467,46	51,9
467,826	59,43
468,191	-5,8
468,557	61,94
468,922	-55,98
469,288	66,95
469,653	-113,68
470,018	49,39
470,383	-33,4
470,749	-23,36
471,114	-15,84
471,479	-10,82
471,844	1,72
472,209	74,48
472,574	44,37
472,939	-23,36
473,304	61,94
473,669	31,83
474,034	-78,56
474,399	49,39
474,763	-5,8
475,128	31,83
475,493	-93,61
475,857	-38,42
476,222	109,6
476,587	21,8
476,951	82,01
477,316	29,32
477,68	46,88
478,044	61,94
478,409	51,9
478,773	-38,42
479,137	21,8
479,501	14,27
479,866	36,85
480,23	122,15
480,594	-73,54
480,958	6,74
481,322	-66,01
481,686	29,32
482,05	56,92
482,413	-10,82
482,777	-0,78
483,141	1,72
483,505	-40,92
483,868	64,44
484,232	89,53
484,596	-73,54
484,959	1,72
485,323	1,72
485,686	16,78
486,05	1,72
486,413	-0,78
486,776	-63,5
487,14	-8,31
487,503	-35,91
487,866	16,78
488,229	21,8
488,592	9,25
488,956	21,8
489,319	4,23
489,682	44,37
490,045	11,76
490,407	36,85
490,77	107,09
491,133	36,85
491,496	36,85
491,859	-78,56
492,221	-50,96
492,584	-61
492,947	19,29
493,309	9,25
493,672	-118,7
494,034	61,94
494,396	-20,85
494,759	21,8
495,121	152,25
495,483	16,78
495,846	142,22
496,208	71,97
496,57	56,92
496,932	26,81
497,294	19,29
497,656	-28,38
498,018	-68,52
498,38	9,25
498,742	14,27
499,104	36,85
499,466	-48,45
499,827	-3,29
500,189	-50,96
500,551	-40,92
500,912	24,3
501,274	92,04
501,636	99,57
501,997	-45,94
502,359	122,15
502,72	-38,42
503,081	1,72
503,443	-15,84
503,804	1,72
504,165	-48,45
504,526	-128,73
504,887	56,92
505,249	14,27
505,61	157,27
505,971	-23,36
506,332	6,74
506,692	109,6
507,053	6,74
507,414	-45,94
507,775	99,57
508,136	69,46
508,496	24,3
508,857	109,6
509,218	19,29
509,578	36,85
509,939	92,04
510,299	-88,59
510,66	24,3
511,02	-91,1
511,38	-86,08
511,741	-18,35
512,101	-28,38
512,461	64,44
512,821	-33,4
513,181	49,39
513,541	-63,5
513,901	82,01
514,261	34,34
514,621	-20,85
514,981	-8,31
515,341	-15,84
515,701	-53,47
516,06	34,34
516,42	16,78
516,78	97,06
517,139	-93,61
517,499	4,23
517,859	29,32
518,218	-40,92
518,577	14,27
518,937	-71,03
519,296	64,44
519,655	29,32
520,015	39,36
520,374	-18,35
520,733	-43,43
521,092	59,43
521,451	-126,22
521,81	56,92
522,169	26,81
522,528	9,25
522,887	1,72
523,246	36,85
523,605	89,53
523,963	-20,85
524,322	-5,8
524,681	132,18
525,039	-35,91
525,398	-66,01
525,756	59,43
526,115	9,25
526,473	-33,4
526,832	16,78
527,19	-18,35
527,548	46,88
527,906	21,8
528,265	94,55
528,623	-5,8
528,981	11,76
529,339	54,41
529,697	-8,31
530,055	-86,08
530,413	26,81
530,771	-63,5
531,128	11,76
531,486	-128,73
531,844	44,37
532,202	44,37
532,559	-0,78
532,917	6,74
533,274	76,99
533,632	79,5
533,989	-28,38
534,347	44,37
534,704	139,71
535,061	4,23
535,419	122,15
535,776	-13,33
536,133	69,46
536,49	29,32
536,847	-38,42
537,204	-33,4
537,561	49,39
537,918	-106,15
538,275	79,5
538,632	87,02
538,989	29,32
539,346	26,81
539,702	29,32
540,059	-20,85
540,415	-111,17
540,772	-20,85
541,129	34,34
541,485	97,06
541,841	46,88
542,198	54,41
542,554	66,95
542,91	39,36
543,267	-111,17
543,623	-50,96
543,979	36,85
544,335	-25,87
544,691	26,81
545,047	49,39
545,403	16,78
545,759	-76,05
546,115	59,43
546,471	-71,03
546,826	-78,56
547,182	54,41
547,538	9,25
547,893	-13,33
548,249	84,52
548,605	-18,35
548,96	26,81
549,315	89,53
549,671	49,39
550,026	127,17
550,381	61,94
550,737	-40,92
551,092	127,17
551,447	49,39
551,802	34,34
552,157	82,01
552,512	69,46
552,867	34,34
553,222	154,76
553,577	134,69
553,932	-18,35
554,286	159,78
554,641	119,64
554,996	202,43
555,35	-38,42
555,705	147,24
556,06	1,72
556,414	59,43
556,768	172,32
557,123	41,87
557,477	69,46
557,831	122,15
558,186	159,78
558,54	11,76
558,894	132,18
559,248	29,32
559,602	102,08
559,956	6,74
560,31	61,94
560,664	172,32
561,018	129,67
561,372	107,09
561,725	44,37
562,079	92,04
562,433	137,2
562,786	92,04
563,14	79,5
563,493	94,55
563,847	82,01
564,2	99,57
564,554	177,34
564,907	162,29
565,26	202,43
565,614	262,64
565,967	84,52
566,32	169,81
566,673	92,04
567,026	107,09
567,379	132,18
567,732	157,27
568,085	240,06
568,438	212,46
568,79	199,92
569,143	187,38
569,496	225,01
569,848	214,97
570,201	232,53
570,554	189,89
570,906	194,9
571,259	199,92
571,611	182,36
571,963	237,55
572,316	255,11
572,668	272,68
573,02	189,89
573,372	277,69
573,724	250,1
574,076	169,81
574,428	172,32
574,78	225,01
575,132	265,15
575,484	237,55
575,836	260,13
576,188	142,22
576,539	285,22
576,891	325,36
577,243	250,1
577,594	207,45
577,946	297,76
578,297	322,85
578,649	202,43
579	260,13
579,351	310,31
579,703	265,15
580,054	202,43
580,405	192,39
580,756	300,27
581,107	255,11
581,458	219,99
581,809	292,75
582,16	217,48
582,511	207,45
582,862	252,61
583,212	277,69
583,563	257,62
583,914	184,87
584,264	250,1
584,615	182,36
584,966	209,96
585,316	189,89
585,666	230,03
586,017	285,22
586,367	237,55
586,717	245,08
587,068	345,43
587,418	225,01
587,768	204,94
588,118	199,92
588,468	157,27
588,818	270,17
589,168	280,2
589,518	270,17
589,868	154,76
590,217	124,66
590,567	272,68
590,917	41,87
591,266	112,11
591,616	129,67
591,966	174,83
592,315	297,76
592,664	142,22
593,014	182,36
593,363	154,76
593,712	222,5
594,062	154,76
594,411	87,02
594,76	71,97
595,109	139,71
595,458	167,31
595,807	192,39
596,156	159,78
596,505	127,17
596,854	16,78
597,202	44,37
597,551	157,27
597,9	36,85
598,248	164,8
598,597	79,5
598,945	94,55
599,294	114,62
599,642	169,81
599,991	26,81
600,339	104,59
600,687	-5,8
601,035	34,34
601,384	-18,35
601,732	104,59
602,08	29,32
602,428	51,9
602,776	102,08
603,124	112,11
603,471	31,83
603,819	172,32
604,167	92,04
604,515	6,74
604,862	137,2
605,21	112,11
605,557	11,76
605,905	87,02
606,252	-25,87
606,6	19,29
606,947	16,78
607,294	-63,5
607,642	34,34
607,989	-8,31
608,336	122,15
608,683	144,73
609,03	134,69
609,377	61,94
609,724	21,8
610,071	132,18
610,418	79,5
610,765	64,44
611,111	41,87
611,458	51,9
611,805	-18,35
612,151	147,24
612,498	26,81
612,844	122,15
613,191	-3,29
613,537	71,97
613,883	64,44
614,23	44,37
614,576	51,9
614,922	14,27
615,268	-58,49
615,614	76,99
615,96	26,81
616,306	117,13
616,652	24,3
616,998	71,97
617,344	109,6
617,689	49,39
618,035	119,64
618,381	79,5
618,726	-68,52
619,072	44,37
619,417	-45,94
619,763	36,85
620,108	56,92
620,453	102,08
620,799	41,87
621,144	56,92
621,489	19,29
621,834	34,34
622,179	82,01
622,524	-3,29
622,869	99,57
623,214	16,78
623,559	19,29
623,904	26,81
624,249	14,27
624,593	-13,33
624,938	39,36
625,283	1,72
625,627	-76,05
625,972	56,92
626,316	14,27
626,66	-68,52
627,005	-98,63
627,349	-43,43
627,693	74,48
628,037	39,36
628,382	-63,5
628,726	21,8
629,07	4,23
629,414	84,52
629,757	36,85
630,101	79,5
630,445	157,27
630,789	-63,5
631,133	-50,96
631,476	124,66
631,82	134,69
632,163	169,81
632,507	24,3
632,85	19,29
633,194	54,41
633,537	-71,03
633,88	129,67
634,224	-40,92
634,567	6,74
634,91	-0,78
635,253	-0,78
635,596	44,37
635,939	-8,31
636,282	64,44
636,625	21,8
636,967	14,27
637,31	-13,33
637,653	6,74
637,996	29,32
638,338	71,97
638,681	1,72
639,023	49,39
639,366	-101,14
639,708	-18,35
640,05	-88,59
640,393	36,85
640,735	-38,42
641,077	92,04
641,419	157,27
641,761	-33,4
642,103	-5,8
642,445	-53,47
642,787	-13,33
643,129	9,25
643,471	54,41
643,812	-18,35
644,154	-71,03
644,496	19,29
644,837	9,25
645,179	-63,5
645,52	11,76
645,862	66,95
646,203	-33,4
646,544	-28,38
646,886	69,46
647,227	21,8
647,568	39,36
647,909	74,48
648,25	-58,49
648,591	31,83
648,932	132,18
649,273	36,85
649,614	19,29
649,954	-78,56
650,295	-58,49
650,636	46,88
650,976	34,34
651,317	46,88
651,657	-83,57
651,998	21,8
652,338	14,27
652,679	19,29
653,019	-45,94
653,359	14,27
653,699	41,87
654,039	-18,35
654,379	34,34
654,719	36,85
655,059	-61
655,399	-63,5
655,739	-18,35
656,079	-136,26
656,419	39,36
656,758	-23,36
657,098	-86,08
657,437	11,76
657,777	26,81
658,116	34,34
658,456	-96,12
658,795	-133,75
659,135	-28,38
659,474	-81,07
659,813	9,25
660,152	39,36
660,491	-30,89
660,83	-3,29
661,169	-76,05
661,508	-10,82
661,847	-28,38
662,186	56,92
662,524	-76,05
662,863	-30,89
663,202	16,78
663,54	-98,63
663,879	44,37
664,217	46,88
664,556	-38,42
664,894	-55,98
665,233	-18,35
665,571	66,95
665,909	-0,78
666,247	-28,38
666,585	-50,96
666,923	21,8
667,261	9,25
667,599	74,48
667,937	-13,33
668,275	9,25
668,613	56,92
668,95	-48,45
669,288	76,99
669,626	-15,84
669,963	-8,31
670,301	59,43
670,638	31,83
670,975	-0,78
671,313	71,97
671,65	-8,31
671,987	-88,59
672,324	6,74
672,661	-33,4
672,998	-3,29
673,335	-78,56
673,672	41,87
674,009	-10,82
674,346	94,55
674,683	-45,94
675,019	66,95
675,356	-43,43
675,693	-88,59
676,029	9,25
676,366	-53,47
676,702	89,53
677,039	-101,14
677,375	-8,31
677,711	-91,1
678,047	-5,8
678,383	64,44
678,72	-86,08
679,056	-18,35
679,392	84,52
679,727	87,02
680,063	-13,33
680,399	-13,33
680,735	-13,33
681,071	46,88
681,406	59,43
681,742	-0,78
682,077	49,39
682,413	44,37
682,748	69,46
683,084	-15,84
683,419	14,27
683,754	1,72
684,089	49,39
684,424	11,76
684,76	56,92
685,095	-118,7
685,429	-13,33
685,764	-50,96
686,099	6,74
686,434	-5,8
686,769	41,87
687,103	-10,82
687,438	-73,54
687,773	9,25
688,107	61,94
688,442	51,9
688,776	-106,15
689,11	44,37
689,445	-55,98
689,779	11,76
690,113	-93,61
690,447	82,01
690,781	46,88
691,115	-76,05
691,449	6,74
691,783	-45,94
692,117	-53,47
692,451	-30,89
692,784	-13,33
693,118	-66,01
693,452	-53,47
693,785	-71,03
694,119	59,43
694,452	-35,91
694,786	-5,8
695,119	-30,89
695,452	19,29
695,785	16,78
696,118	-43,43
696,452	44,37
696,785	9,25
697,118	-71,03
697,45	14,27
697,783	39,36
698,116	16,78
698,449	-5,8
698,782	97,06
699,114	-15,84
699,447	44,37
699,779	-45,94
700,112	49,39
700,444	24,3
700,776	-15,84
701,109	-5,8
701,441	-3,29
701,773	-40,92
702,105	31,83
702,437	76,99
702,769	-43,43
703,101	29,32
703,433	-86,08
703,765	97,06
704,097	-106,15
704,428	104,59
704,76	6,74
705,092	11,76
705,423	-35,91
705,755	71,97
706,086	29,32
706,417	89,53
706,749	-138,77
707,08	84,52
707,411	41,87
707,742	76,99
708,073	-118,7
708,404	-43,43
708,735	79,5
709,066	87,02
709,397	-0,78
709,728	-98,63
710,059	84,52
710,389	-5,8
710,72	24,3
711,05	-28,38
711,381	-18,35
711,711	-33,4
712,042	-58,49
712,372	-45,94
712,702	51,9
713,033	76,99
713,363	29,32
713,693	147,24
714,023	-8,31
714,353	97,06
714,683	54,41
715,013	6,74
715,342	54,41
715,672	137,2
716,002	139,71
716,331	-13,33
716,661	4,23
716,99	14,27
717,32	49,39
717,649	61,94
717,979	-50,96
718,308	-15,84
718,637	69,46
718,966	-15,84
719,295	21,8
719,624	79,5
719,953	66,95
720,282	-93,61
720,611	-58,49
720,94	46,88
721,269	46,88
721,597	24,3
721,926	59,43
722,254	-3,29
722,583	-10,82
722,911	24,3
723,24	19,29
723,568	-30,89
723,896	24,3
724,225	36,85
724,553	24,3
724,881	-10,82
725,209	-8,31
725,537	-3,29
725,865	14,27
726,193	36,85
726,52	-0,78
726,848	21,8
727,176	-66,01
727,503	-73,54
727,831	-55,98
728,158	112,11
728,486	11,76
728,813	-61
729,14	-45,94
729,468	1,72
729,795	-53,47
730,122	-88,59
730,449	-91,1
730,776	71,97
731,103	36,85
731,43	-35,91
731,757	112,11
732,084	-23,36
732,41	76,99
732,737	-0,78
733,064	-13,33
733,39	36,85
733,717	84,52
734,043	34,34
734,369	9,25
734,696	-40,92
735,022	-45,94
735,348	79,5
735,674	-63,5
736	16,78
736,326	19,29
736,652	-128,73
736,978	-76,05
737,304	-20,85
737,63	-0,78
737,955	-33,4
738,281	26,81
738,607	61,94
738,932	31,83
739,258	152,25
739,583	-15,84
739,908	-76,05
740,234	31,83
740,559	51,9
740,884	-28,38
741,209	-30,89
741,534	-0,78
741,859	-28,38
742,184	11,76
742,509	-23,36
742,834	4,23
743,158	-10,82
743,483	26,81
743,808	6,74
744,132	79,5
744,457	51,9
744,781	-15,84
745,106	29,32
745,43	54,41
745,754	64,44
746,078	-33,4
746,402	56,92
746,727	19,29
747,051	-50,96
747,375	41,87
747,698	64,44
748,022	39,36
748,346	29,32
748,67	119,64
748,993	-98,63
749,317	39,36
749,64	49,39
749,964	-71,03
750,287	9,25
750,611	-88,59
750,934	-66,01
751,257	-8,31
751,58	97,06
751,903	4,23
752,226	1,72
752,549	24,3
752,872	92,04
753,195	59,43
753,518	104,59
753,841	-23,36
754,163	-10,82
754,486	-23,36
754,809	21,8
755,131	71,97
755,453	84,52
755,776	152,25
756,098	59,43
756,42	41,87
756,743	56,92
757,065	89,53
757,387	51,9
757,709	9,25
758,031	26,81
758,352	9,25
758,674	-103,64
758,996	31,83
759,318	112,11
759,639	4,23
759,961	24,3
760,282	9,25
760,604	-63,5
760,925	46,88
761,247	82,01
761,568	-30,89
761,889	-33,4
762,21	9,25
762,531	29,32
762,852	71,97
763,173	-0,78
763,494	-66,01
763,815	-73,54
764,136	-53,47
764,456	1,72
764,777	-10,82
765,098	-15,84
765,418	89,53
765,738	19,29
766,059	66,95
766,379	39,36
766,699	-76,05
767,02	-86,08
767,34	49,39
767,66	64,44
767,98	-20,85
768,3	-10,82
768,62	69,46
768,94	41,87
769,259	-40,92
769,579	-13,33
769,899	46,88
770,218	-3,29
770,538	56,92
770,857	6,74
771,177	19,29
771,496	-45,94
771,815	-55,98
772,134	74,48
772,454	-131,24
772,773	1,72
773,092	19,29
773,411	92,04
773,729	-58,49
774,048	19,29
774,367	46,88
774,686	11,76
775,004	56,92
775,323	21,8
775,642	-63,5
775,96	54,41
776,278	-28,38
776,597	-0,78
776,915	76,99
777,233	59,43
777,551	-28,38
777,869	92,04
778,187	99,57
778,505	-0,78
778,823	-10,82
779,141	92,04
779,459	-88,59
779,777	24,3
780,094	11,76
780,412	-61
780,729	-48,45
781,047	21,8
781,364	-33,4
781,681	-38,42
781,999	-35,91
782,316	87,02
782,633	16,78
782,95	19,29
783,267	61,94
783,584	-25,87
783,901	79,5
784,218	-20,85
784,534	44,37
784,851	16,78
785,168	-38,42
785,484	-5,8
785,801	-35,91
786,117	-45,94
786,434	-106,15
786,75	-73,54
787,066	-38,42
787,382	4,23
787,698	-20,85
788,014	41,87
788,33	49,39
788,646	71,97
788,962	24,3
789,278	21,8
789,594	-63,5
789,909	-28,38
790,225	26,81
790,541	-0,78
790,856	41,87
791,171	19,29
791,487	-93,61
791,802	9,25
792,117	59,43
792,432	-53,47
