Data from Subt2_13-48-55-302.txt Node
Date: Thu Dec 06 13:48:55 CET 2018
User: Artur
Spectrometer: FLMS13639
Trigger mode: 0
Integration Time (sec): 1,000000E-1
Scans to average: 1
Electric dark correction enabled: true
Nonlinearity correction enabled: false
Boxcar width: 0
XAxis mode: Wavelengths
Number of Pixels in Spectrum: 2048
>>>>>Begin Spectral Data<<<<<
339,73	59,11
340,109	59,11
340,488	59,11
340,866	-18,66
341,245	59,11
341,624	44,06
342,002	-48,76
342,381	3,92
342,759	13,96
343,138	-6,12
343,516	-61,31
343,894	84,2
344,273	-16,15
344,651	-6,12
345,029	44,06
345,408	16,46
345,786	64,13
346,164	69,15
346,542	-16,15
346,92	-36,22
347,298	-149,12
347,676	54,1
348,054	49,08
348,432	66,64
348,81	69,15
349,188	-46,26
349,566	21,48
349,944	69,15
350,322	56,6
350,699	66,64
351,077	16,46
351,455	-96,43
351,832	61,62
352,21	26,5
352,588	-3,61
352,965	91,73
353,343	96,75
353,72	94,24
354,098	-13,64
354,475	-73,85
354,852	-66,33
355,23	36,53
355,607	18,97
355,984	26,5
356,361	46,57
356,739	11,45
357,116	-53,78
357,493	-58,8
357,87	21,48
358,247	-23,68
358,624	49,08
359,001	-38,73
359,378	-1,1
359,755	39,04
360,132	-18,66
360,508	126,85
360,885	-16,15
361,262	-73,85
361,639	16,46
362,015	74,17
362,392	-48,76
362,769	-43,75
363,145	11,45
363,522	-33,71
363,898	-16,15
364,275	74,17
364,651	-23,68
365,028	3,92
365,404	26,5
365,78	11,45
366,157	56,6
366,533	36,53
366,909	124,34
367,285	76,68
367,661	59,11
368,038	-33,71
368,414	46,57
368,79	-41,24
369,166	66,64
369,542	81,69
369,918	146,92
370,294	-68,84
370,669	51,59
371,045	-124,03
371,421	-66,33
371,797	61,62
372,172	-41,24
372,548	13,96
372,924	-43,75
373,299	61,62
373,675	-71,34
374,05	31,52
374,426	49,08
374,801	56,6
375,177	84,2
375,552	-23,68
375,928	-26,19
376,303	104,27
376,678	26,5
377,053	36,53
377,429	-3,61
377,804	-38,73
378,179	18,97
378,554	-8,62
378,929	-43,75
379,304	-23,68
379,679	-36,22
380,054	126,85
380,429	54,1
380,804	-28,69
381,179	-8,62
381,553	-11,13
381,928	-28,69
382,303	-48,76
382,678	8,94
383,052	-51,27
383,427	8,94
383,801	54,1
384,176	44,06
384,551	-18,66
384,925	-3,61
385,299	3,92
385,674	-11,13
386,048	11,45
386,422	-21,17
386,797	11,45
387,171	1,41
387,545	-6,12
387,919	8,94
388,293	-83,89
388,668	29,01
389,042	64,13
389,416	-18,66
389,79	11,45
390,164	-13,64
390,537	116,82
390,911	11,45
391,285	-16,15
391,659	-81,38
392,033	31,52
392,406	-33,71
392,78	59,11
393,154	-21,17
393,527	-23,68
393,901	99,25
394,274	111,8
394,648	76,68
395,021	-141,59
395,395	26,5
395,768	-103,96
396,142	18,97
396,515	101,76
396,888	-33,71
397,261	6,43
397,635	-38,73
398,008	34,03
398,381	49,08
398,754	11,45
399,127	16,46
399,5	18,97
399,873	39,04
400,246	16,46
400,619	29,01
400,991	36,53
401,364	-16,15
401,737	-23,68
402,11	6,43
402,482	-56,29
402,855	-134,06
403,228	-83,89
403,6	1,41
403,973	26,5
404,345	11,45
404,718	11,45
405,09	-63,82
405,463	-26,19
405,835	-43,75
406,207	-1,1
406,58	54,1
406,952	-23,68
407,324	18,97
407,696	-18,66
408,068	-1,1
408,44	-33,71
408,812	-53,78
409,184	-1,1
409,556	39,04
409,928	23,99
410,3	76,68
410,672	26,5
411,044	-103,96
411,416	126,85
411,787	114,31
412,159	-3,61
412,531	101,76
412,902	46,57
413,274	-93,92
413,645	74,17
414,017	101,76
414,388	59,11
414,76	-28,69
415,131	36,53
415,503	-3,61
415,874	23,99
416,245	3,92
416,616	139,4
416,987	91,73
417,359	11,45
417,73	8,94
418,101	34,03
418,472	49,08
418,843	39,04
419,214	3,92
419,585	26,5
419,956	-46,26
420,326	-13,64
420,697	1,41
421,068	79,18
421,439	-13,64
421,809	13,96
422,18	-28,69
422,551	-91,41
422,921	-36,22
423,292	71,66
423,662	-41,24
424,033	-6,12
424,403	-16,15
424,773	-41,24
425,144	44,06
425,514	-46,26
425,884	61,62
426,254	-36,22
426,624	8,94
426,995	-33,71
427,365	16,46
427,735	49,08
428,105	-8,62
428,475	-81,38
428,845	-18,66
429,214	76,68
429,584	66,64
429,954	64,13
430,324	44,06
430,694	54,1
431,063	86,71
431,433	136,89
431,803	56,6
432,172	-38,73
432,542	144,41
432,911	-13,64
433,281	-13,64
433,65	41,55
434,019	69,15
434,389	66,64
434,758	81,69
435,127	-88,91
435,496	-36,22
435,866	11,45
436,235	-8,62
436,604	-1,1
436,973	18,97
437,342	1,41
437,711	29,01
438,08	13,96
438,449	99,25
438,817	3,92
439,186	-76,36
439,555	89,22
439,924	3,92
440,292	-58,8
440,661	-11,13
441,03	36,53
441,398	71,66
441,767	74,17
442,135	-11,13
442,503	-3,61
442,872	116,82
443,24	-31,2
443,609	114,31
443,977	26,5
444,345	-73,85
444,713	11,45
445,081	-1,1
445,449	-3,61
445,818	-3,61
446,186	6,43
446,554	-31,2
446,921	96,75
447,289	21,48
447,657	-53,78
448,025	-43,75
448,393	13,96
448,761	-23,68
449,128	64,13
449,496	177,03
449,864	-18,66
450,231	29,01
450,599	1,41
450,966	-1,1
451,334	-8,62
451,701	-16,15
452,068	26,5
452,436	34,03
452,803	-21,17
453,17	54,1
453,537	56,6
453,905	-38,73
454,272	44,06
454,639	-56,29
455,006	-13,64
455,373	21,48
455,74	59,11
456,107	46,57
456,473	64,13
456,84	56,6
457,207	44,06
457,574	34,03
457,941	-18,66
458,307	172,01
458,674	31,52
459,04	44,06
459,407	59,11
459,773	-46,26
460,14	69,15
460,506	13,96
460,873	91,73
461,239	-76,36
461,605	23,99
461,972	-26,19
462,338	26,5
462,704	3,92
463,07	41,55
463,436	99,25
463,802	-23,68
464,168	-23,68
464,534	-11,13
464,9	-1,1
465,266	-71,34
465,632	41,55
465,997	81,69
466,363	119,33
466,729	-56,29
467,094	29,01
467,46	34,03
467,826	-16,15
468,191	11,45
468,557	141,9
468,922	-1,1
469,288	1,41
469,653	-18,66
470,018	49,08
470,383	-26,19
470,749	66,64
471,114	-46,26
471,479	8,94
471,844	59,11
472,209	51,59
472,574	106,78
472,939	3,92
473,304	59,11
473,669	49,08
474,034	-66,33
474,399	71,66
474,763	13,96
475,128	84,2
475,493	-134,06
475,857	46,57
476,222	13,96
476,587	-11,13
476,951	56,6
477,316	76,68
477,68	56,6
478,044	11,45
478,409	89,22
478,773	41,55
479,137	106,78
479,501	-58,8
479,866	59,11
480,23	94,24
480,594	-21,17
480,958	-33,71
481,322	-51,27
481,686	49,08
482,05	11,45
482,413	49,08
482,777	-8,62
483,141	26,5
483,505	-18,66
483,868	64,13
484,232	-23,68
484,596	-66,33
484,959	26,5
485,323	74,17
485,686	23,99
486,05	212,15
486,413	-11,13
486,776	-38,73
487,14	71,66
487,503	-16,15
487,866	-21,17
488,229	-11,13
488,592	44,06
488,956	84,2
489,319	76,68
489,682	41,55
490,045	-18,66
490,407	-23,68
490,77	44,06
491,133	101,76
491,496	23,99
491,859	8,94
492,221	-3,61
492,584	79,18
492,947	8,94
493,309	-6,12
493,672	-53,78
494,034	41,55
494,396	41,55
494,759	-1,1
495,121	136,89
495,483	31,52
495,846	-36,22
496,208	84,2
496,57	76,68
496,932	61,62
497,294	-36,22
497,656	34,03
498,018	49,08
498,38	66,64
498,742	23,99
499,104	-3,61
499,466	44,06
499,827	31,52
500,189	-18,66
500,551	-48,76
500,912	81,69
501,274	134,38
501,636	59,11
501,997	29,01
502,359	99,25
502,72	-31,2
503,081	-18,66
503,443	6,43
503,804	91,73
504,165	-56,29
504,526	1,41
504,887	39,04
505,249	1,41
505,61	94,24
505,971	114,31
506,332	29,01
506,692	101,76
507,053	54,1
507,414	-31,2
507,775	159,47
508,136	1,41
508,496	69,15
508,857	86,71
509,218	34,03
509,578	64,13
509,939	79,18
510,299	51,59
510,66	76,68
511,02	-31,2
511,38	-51,27
511,741	-26,19
512,101	-66,33
512,461	31,52
512,821	-16,15
513,181	74,17
513,541	59,11
513,901	41,55
514,261	109,29
514,621	23,99
514,981	-8,62
515,341	-38,73
515,701	-11,13
516,06	8,94
516,42	31,52
516,78	54,1
517,139	-41,24
517,499	11,45
517,859	134,38
518,218	49,08
518,577	44,06
518,937	-53,78
519,296	64,13
519,655	64,13
520,015	21,48
520,374	-16,15
520,733	46,57
521,092	46,57
521,451	-106,47
521,81	99,25
522,169	41,55
522,528	96,75
522,887	106,78
523,246	18,97
523,605	56,6
523,963	18,97
524,322	96,75
524,681	121,83
525,039	-28,69
525,398	36,53
525,756	177,03
526,115	26,5
526,473	-41,24
526,832	94,24
527,19	86,71
527,548	96,75
527,906	1,41
528,265	56,6
528,623	64,13
528,981	41,55
529,339	41,55
529,697	89,22
530,055	-48,76
530,413	39,04
530,771	-26,19
531,128	-36,22
531,486	16,46
531,844	114,31
532,202	89,22
532,559	11,45
532,917	-1,1
533,274	76,68
533,632	131,87
533,989	91,73
534,347	74,17
534,704	134,38
535,061	46,57
535,419	89,22
535,776	-101,45
536,133	197,1
536,49	74,17
536,847	-53,78
537,204	31,52
537,561	71,66
537,918	16,46
538,275	119,33
538,632	146,92
538,989	109,29
539,346	8,94
539,702	116,82
540,059	-28,69
540,415	41,55
540,772	41,55
541,129	-6,12
541,485	106,78
541,841	119,33
542,198	129,36
542,554	59,11
542,91	81,69
543,267	6,43
543,623	21,48
543,979	-33,71
544,335	121,83
544,691	89,22
545,047	111,8
545,403	99,25
545,759	76,68
546,115	49,08
546,471	51,59
546,826	59,11
547,182	101,76
547,538	86,71
547,893	3,92
548,249	59,11
548,605	151,94
548,96	139,4
549,315	212,15
549,671	124,34
550,026	207,13
550,381	154,45
550,737	134,38
551,092	224,69
551,447	254,8
551,802	172,01
552,157	282,4
552,512	184,55
552,867	232,22
553,222	274,87
553,577	249,78
553,932	194,59
554,286	360,17
554,641	289,92
554,996	400,31
555,35	161,97
555,705	252,29
556,06	279,89
556,414	322,54
556,768	257,31
557,123	294,94
557,477	159,47
557,831	365,19
558,186	330,06
558,54	357,66
558,894	340,1
559,248	392,78
559,602	330,06
559,956	355,15
560,31	488,12
560,664	498,15
561,018	455,5
561,372	302,47
561,725	460,52
562,079	437,94
562,433	437,94
562,786	347,63
563,14	304,98
563,493	365,19
563,847	483,1
564,2	498,15
564,554	483,1
564,907	387,77
565,26	530,77
565,614	611,05
565,967	548,33
566,32	540,8
566,673	573,42
567,026	580,95
567,379	601,02
567,732	693,84
568,085	683,81
568,438	611,05
568,79	754,05
569,143	553,35
569,496	641,16
569,848	590,98
570,201	643,67
570,554	676,28
570,906	761,58
571,259	776,63
571,611	683,81
571,963	851,9
572,316	736,49
572,668	784,16
573,02	786,67
573,372	831,83
573,724	759,07
574,076	874,48
574,428	736,49
574,78	826,81
575,132	819,28
575,484	749,04
575,836	781,65
576,188	698,86
576,539	909,6
576,891	979,85
577,243	834,33
577,594	751,54
577,946	919,63
578,297	999,92
578,649	1019,99
579	942,21
579,351	932,18
579,703	959,77
580,054	854,4
580,405	919,63
580,756	954,76
581,107	879,49
581,458	924,65
581,809	917,12
582,16	939,7
582,511	897,05
582,862	854,4
583,212	876,98
583,563	924,65
583,914	759,07
584,264	769,11
584,615	806,74
584,966	844,37
585,316	957,27
585,666	869,46
586,017	824,3
586,367	902,07
586,717	801,72
587,068	856,91
587,418	769,11
587,768	671,26
588,118	811,76
588,468	754,05
588,818	824,3
589,168	744,02
589,518	611,05
589,868	668,75
590,217	771,61
590,567	726,46
590,917	520,73
591,266	621,09
591,616	463,03
591,966	601,02
592,315	681,3
592,664	613,56
593,014	560,87
593,363	631,12
593,712	538,3
594,062	518,22
594,411	475,58
594,76	490,63
595,109	430,42
595,458	473,07
595,807	508,19
596,156	513,21
596,505	435,43
596,854	315,01
597,202	325,05
597,551	272,36
597,9	304,98
598,248	357,66
598,597	370,21
598,945	437,94
599,294	355,15
599,642	417,87
599,991	212,15
600,339	217,17
600,687	161,97
601,035	352,64
601,384	192,08
601,732	234,73
602,08	192,08
602,428	294,94
602,776	385,26
603,124	214,66
603,471	144,41
603,819	345,12
604,167	254,8
604,515	350,14
604,862	179,54
605,21	219,68
605,557	232,22
605,905	219,68
606,252	184,55
606,6	214,66
606,947	209,64
607,294	159,47
607,642	212,15
607,989	124,34
608,336	172,01
608,683	187,06
609,03	232,22
609,377	224,69
609,724	177,03
610,071	209,64
610,418	277,38
610,765	179,54
611,111	136,89
611,458	101,76
611,805	96,75
612,151	156,96
612,498	111,8
612,844	197,1
613,191	29,01
613,537	111,8
613,883	126,85
614,23	184,55
614,576	187,06
614,922	81,69
615,268	-16,15
615,614	66,64
615,96	119,33
616,306	151,94
616,652	119,33
616,998	114,31
617,344	136,89
617,689	124,34
618,035	134,38
618,381	114,31
618,726	8,94
619,072	101,76
619,417	39,04
619,763	36,53
620,108	46,57
620,453	146,92
620,799	94,24
621,144	6,43
621,489	56,6
621,834	41,55
622,179	51,59
622,524	41,55
622,869	207,13
623,214	156,96
623,559	3,92
623,904	94,24
624,249	44,06
624,593	36,53
624,938	71,66
625,283	-3,61
625,627	31,52
625,972	139,4
626,316	141,9
626,66	44,06
627,005	-13,64
627,349	13,96
627,693	91,73
628,037	104,27
628,382	-11,13
628,726	56,6
629,07	86,71
629,414	99,25
629,757	21,48
630,101	101,76
630,445	91,73
630,789	1,41
631,133	13,96
631,476	74,17
631,82	169,5
632,163	189,57
632,507	8,94
632,85	89,22
633,194	41,55
633,537	23,99
633,88	151,94
634,224	-36,22
634,567	84,2
634,91	49,08
635,253	8,94
635,596	79,18
635,939	166,99
636,282	131,87
636,625	129,36
636,967	31,52
637,31	21,48
637,653	1,41
637,996	34,03
638,338	156,96
638,681	-6,12
639,023	79,18
639,366	44,06
639,708	-38,73
640,05	-18,66
640,393	16,46
640,735	-66,33
641,077	177,03
641,419	159,47
641,761	29,01
642,103	101,76
642,445	99,25
642,787	46,57
643,129	86,71
643,471	-16,15
643,812	54,1
644,154	26,5
644,496	51,59
644,837	26,5
645,179	3,92
645,52	64,13
645,862	101,76
646,203	-51,27
646,544	1,41
646,886	23,99
647,227	109,29
647,568	54,1
647,909	154,45
648,25	49,08
648,591	1,41
648,932	89,22
649,273	26,5
649,614	21,48
649,954	-103,96
650,295	23,99
650,636	81,69
650,976	1,41
651,317	149,43
651,657	6,43
651,998	89,22
652,338	-16,15
652,679	34,03
653,019	59,11
653,359	-8,62
653,699	106,78
654,039	69,15
654,379	89,22
654,719	36,53
655,059	-31,2
655,399	-3,61
655,739	1,41
656,079	-6,12
656,419	76,68
656,758	-46,26
657,098	-93,92
657,437	29,01
657,777	109,29
658,116	96,75
658,456	-58,8
658,795	-63,82
659,135	61,62
659,474	-16,15
659,813	26,5
660,152	49,08
660,491	6,43
660,83	18,97
661,169	-101,45
661,508	126,85
661,847	64,13
662,186	166,99
662,524	-18,66
662,863	-11,13
663,202	11,45
663,54	-33,71
663,879	26,5
664,217	13,96
664,556	-11,13
664,894	94,24
665,233	41,55
665,571	26,5
665,909	-36,22
666,247	-16,15
666,585	61,62
666,923	49,08
667,261	36,53
667,599	149,43
667,937	54,1
668,275	23,99
668,613	136,89
668,95	-23,68
669,288	146,92
669,626	13,96
669,963	51,59
670,301	-8,62
670,638	21,48
670,975	31,52
671,313	114,31
671,65	-6,12
671,987	-66,33
672,324	-31,2
672,661	-1,1
672,998	74,17
673,335	-18,66
673,672	79,18
674,009	-58,8
674,346	61,62
674,683	23,99
675,019	89,22
675,356	31,52
675,693	-86,4
676,029	-11,13
676,366	54,1
676,702	39,04
677,039	-86,4
677,375	31,52
677,711	-8,62
678,047	99,25
678,383	86,71
678,72	-21,17
679,056	109,29
679,392	39,04
679,727	-28,69
680,063	46,57
680,399	26,5
680,735	119,33
681,071	26,5
681,406	79,18
681,742	26,5
682,077	51,59
682,413	74,17
682,748	46,57
683,084	-18,66
683,419	61,62
683,754	-41,24
684,089	-3,61
684,424	141,9
684,76	84,2
685,095	29,01
685,429	11,45
685,764	-28,69
686,099	69,15
686,434	111,8
686,769	44,06
687,103	23,99
687,438	-16,15
687,773	-1,1
688,107	84,2
688,442	66,64
688,776	-41,24
689,11	44,06
689,445	41,55
689,779	26,5
690,113	6,43
690,447	106,78
690,781	44,06
691,115	-101,45
691,449	41,55
691,783	6,43
692,117	-3,61
692,451	23,99
692,784	-43,75
693,118	18,97
693,452	-23,68
693,785	-53,78
694,119	79,18
694,452	-33,71
694,786	54,1
695,119	16,46
695,452	81,69
695,785	79,18
696,118	26,5
696,452	11,45
696,785	91,73
697,118	-16,15
697,45	39,04
697,783	31,52
698,116	49,08
698,449	64,13
698,782	31,52
699,114	89,22
699,447	-16,15
699,779	-41,24
700,112	66,64
700,444	64,13
700,776	44,06
701,109	56,6
701,441	26,5
701,773	6,43
702,105	79,18
702,437	-86,4
702,769	-18,66
703,101	91,73
703,433	-43,75
703,765	16,46
704,097	-41,24
704,428	74,17
704,76	49,08
705,092	86,71
705,423	21,48
705,755	51,59
706,086	36,53
706,417	106,78
706,749	6,43
707,08	-11,13
707,411	-26,19
707,742	141,9
708,073	21,48
708,404	36,53
708,735	44,06
709,066	49,08
709,397	54,1
709,728	-76,36
710,059	121,83
710,389	84,2
710,72	8,94
711,05	121,83
711,381	23,99
711,711	-41,24
712,042	-21,17
712,372	-51,27
712,702	89,22
713,033	74,17
713,363	36,53
713,693	161,97
714,023	11,45
714,353	79,18
714,683	44,06
715,013	11,45
715,342	114,31
715,672	64,13
716,002	44,06
716,331	-16,15
716,661	74,17
716,99	36,53
717,32	119,33
717,649	81,69
717,979	-13,64
718,308	106,78
718,637	-23,68
718,966	-38,73
719,295	13,96
719,624	51,59
719,953	71,66
720,282	-28,69
720,611	-81,38
720,94	144,41
721,269	109,29
721,597	79,18
721,926	159,47
722,254	36,53
722,583	61,62
722,911	66,64
723,24	23,99
723,568	-13,64
723,896	21,48
724,225	-76,36
724,553	-23,68
724,881	3,92
725,209	6,43
725,537	-36,22
725,865	-58,8
726,193	11,45
726,52	18,97
726,848	71,66
727,176	36,53
727,503	-71,34
727,831	-26,19
728,158	44,06
728,486	54,1
728,813	21,48
729,14	46,57
729,468	-36,22
729,795	3,92
730,122	-31,2
730,449	-31,2
730,776	21,48
731,103	91,73
731,43	-48,76
731,757	56,6
732,084	-16,15
732,41	49,08
732,737	18,97
733,064	44,06
733,39	41,55
733,717	11,45
734,043	16,46
734,369	11,45
734,696	71,66
735,022	18,97
735,348	94,24
735,674	21,48
736	114,31
736,326	69,15
736,652	-88,91
736,978	13,96
737,304	-36,22
737,63	21,48
737,955	-81,38
738,281	18,97
738,607	49,08
738,932	-38,73
739,258	74,17
739,583	-21,17
739,908	-6,12
740,234	66,64
740,559	79,18
740,884	84,2
741,209	-51,27
741,534	26,5
741,859	-63,82
742,184	84,2
742,509	-101,45
742,834	-13,64
743,158	-3,61
743,483	16,46
743,808	-63,82
744,132	51,59
744,457	-38,73
744,781	-63,82
745,106	136,89
745,43	1,41
745,754	94,24
746,078	8,94
746,402	56,6
746,727	31,52
747,051	-96,43
747,375	124,34
747,698	66,64
748,022	61,62
748,346	18,97
748,67	94,24
748,993	-101,45
749,317	116,82
749,64	13,96
749,964	-23,68
750,287	8,94
750,611	-86,4
750,934	-103,96
751,257	51,59
751,58	11,45
751,903	66,64
752,226	-48,76
752,549	66,64
752,872	39,04
753,195	-46,26
753,518	81,69
753,841	-56,29
754,163	-8,62
754,486	-71,34
754,809	31,52
755,131	114,31
755,453	51,59
755,776	54,1
756,098	29,01
756,42	94,24
756,743	41,55
757,065	99,25
757,387	-46,26
757,709	6,43
758,031	-33,71
758,352	-46,26
758,674	-6,12
758,996	26,5
759,318	-13,64
759,639	-8,62
759,961	-91,41
760,282	89,22
760,604	1,41
760,925	-38,73
761,247	39,04
761,568	-11,13
761,889	-36,22
762,21	29,01
762,531	34,03
762,852	-16,15
763,173	26,5
763,494	-11,13
763,815	3,92
764,136	-68,84
764,456	-13,64
764,777	11,45
765,098	-21,17
765,418	172,01
765,738	64,13
766,059	46,57
766,379	54,1
766,699	-76,36
767,02	8,94
767,34	89,22
767,66	36,53
767,98	54,1
768,3	76,68
768,62	-11,13
768,94	59,11
769,259	-13,64
769,579	-23,68
769,899	41,55
770,218	64,13
770,538	31,52
770,857	36,53
771,177	31,52
771,496	-21,17
771,815	-26,19
772,134	59,11
772,454	-8,62
772,773	34,03
773,092	-1,1
773,411	104,27
773,729	81,69
774,048	69,15
774,367	36,53
774,686	74,17
775,004	31,52
775,323	89,22
775,642	-61,31
775,96	26,5
776,278	-73,85
776,597	13,96
776,915	79,18
777,233	44,06
777,551	31,52
777,869	31,52
778,187	139,4
778,505	114,31
778,823	3,92
779,141	124,34
779,459	-51,27
779,777	51,59
780,094	51,59
780,412	3,92
780,729	34,03
781,047	6,43
781,364	-21,17
781,681	34,03
781,999	-26,19
782,316	44,06
782,633	31,52
782,95	21,48
783,267	-41,24
783,584	56,6
783,901	124,34
784,218	3,92
784,534	-16,15
784,851	-11,13
785,168	11,45
785,484	13,96
785,801	-86,4
786,117	61,62
786,434	-33,71
786,75	-26,19
787,066	3,92
787,382	21,48
787,698	84,2
788,014	71,66
788,33	71,66
788,646	76,68
788,962	54,1
789,278	21,48
789,594	-41,24
789,909	3,92
790,225	-13,64
790,541	11,45
790,856	54,1
791,171	76,68
791,487	-91,41
