Data from Subt2_13-39-35-236.txt Node
Date: Thu Dec 06 13:39:35 CET 2018
User: Artur
Spectrometer: FLMS13639
Trigger mode: 0
Integration Time (sec): 1,000000E-1
Scans to average: 1
Electric dark correction enabled: true
Nonlinearity correction enabled: false
Boxcar width: 0
XAxis mode: Wavelengths
Number of Pixels in Spectrum: 2048
>>>>>Begin Spectral Data<<<<<
339,73	5,33
340,109	5,33
340,488	5,33
340,866	2,82
341,245	60,52
341,624	-39,83
342,002	-77,46
342,381	100,67
342,759	2,82
343,138	-17,25
343,516	-29,79
343,894	32,93
344,273	65,54
344,651	-12,23
345,029	12,86
345,408	10,35
345,786	32,93
346,164	98,16
346,542	-115,09
346,92	-32,3
347,298	-32,3
347,676	-52,37
348,054	-100,04
348,432	15,37
348,81	25,4
349,188	-54,88
349,566	20,38
349,944	42,96
350,322	93,14
350,699	88,12
351,077	-14,74
351,455	-177,81
351,832	-17,25
352,21	93,14
352,588	40,45
352,965	40,45
353,343	93,14
353,72	2,82
354,098	-62,41
354,475	78,09
354,852	-152,72
355,23	68,05
355,607	22,89
355,984	50,49
356,361	30,42
356,739	15,37
357,116	-59,9
357,493	-22,27
357,87	-27,28
358,247	0,31
358,624	-79,97
359,001	-59,9
359,378	30,42
359,755	2,82
360,132	-2,2
360,508	155,86
360,885	-130,14
361,262	-39,83
361,639	-27,28
362,015	25,4
362,392	-34,81
362,769	58,02
363,145	58,02
363,522	-27,28
363,898	-52,37
364,275	35,44
364,651	5,33
365,028	-19,76
365,404	-2,2
365,78	75,58
366,157	10,35
366,533	-22,27
366,909	75,58
367,285	25,4
367,661	-2,2
368,038	-44,84
368,414	30,42
368,79	-57,39
369,166	55,51
369,542	201,02
369,918	45,47
370,294	22,89
370,669	-32,3
371,045	-72,44
371,421	-44,84
371,797	5,33
372,172	-57,39
372,548	85,61
372,924	15,37
373,299	45,47
373,675	-135,16
374,05	22,89
374,426	12,86
374,801	93,14
375,177	12,86
375,552	-67,42
375,928	12,86
376,303	37,95
376,678	17,88
377,053	47,98
377,429	-12,23
377,804	-102,55
378,179	0,31
378,554	-59,9
378,929	-4,7
379,304	5,33
379,679	-29,79
380,054	40,45
380,429	27,91
380,804	-12,23
381,179	-42,34
381,553	-19,76
381,928	-27,28
382,303	-44,84
382,678	-74,95
383,052	-24,77
383,427	-77,46
383,801	113,21
384,176	53
384,551	-22,27
384,925	-12,23
385,299	-92,51
385,674	63,03
386,048	-37,32
386,422	-24,77
386,797	20,38
387,171	15,37
387,545	-122,62
387,919	-22,27
388,293	-27,28
388,668	30,42
389,042	-29,79
389,416	40,45
389,79	-34,81
390,164	-32,3
390,537	5,33
390,911	-17,25
391,285	-14,74
391,659	-105,06
392,033	-19,76
392,406	15,37
392,78	47,98
393,154	-22,27
393,527	-82,48
393,901	-2,2
394,274	37,95
394,648	80,6
395,021	-79,97
395,395	0,31
395,768	-39,83
396,142	-29,79
396,515	10,35
396,888	5,33
397,261	30,42
397,635	-54,88
398,008	42,96
398,381	30,42
398,754	-47,35
399,127	-19,76
399,5	55,51
399,873	-72,44
400,246	35,44
400,619	63,03
400,991	5,33
401,364	-4,7
401,737	-39,83
402,11	-37,32
402,482	-57,39
402,855	-145,2
403,228	-39,83
403,6	-34,81
403,973	2,82
404,345	88,12
404,718	-57,39
405,09	-42,34
405,463	-72,44
405,835	-77,46
406,207	-39,83
406,58	42,96
406,952	-69,93
407,324	-34,81
407,696	-17,25
408,068	-52,37
408,44	-112,58
408,812	-14,74
409,184	25,4
409,556	-2,2
409,928	-9,72
410,3	-4,7
410,672	15,37
411,044	-72,44
411,416	30,42
411,787	105,68
412,159	-34,81
412,531	10,35
412,902	-34,81
413,274	-82,48
413,645	12,86
414,017	-17,25
414,388	25,4
414,76	-32,3
415,131	35,44
415,503	-132,65
415,874	-27,28
416,245	-24,77
416,616	70,56
416,987	40,45
417,359	-29,79
417,73	2,82
418,101	63,03
418,472	88,12
418,843	5,33
419,214	15,37
419,585	47,98
419,956	-12,23
420,326	30,42
420,697	7,84
421,068	32,93
421,439	-29,79
421,809	20,38
422,18	20,38
422,551	-29,79
422,921	17,88
423,292	0,31
423,662	-19,76
424,033	-2,2
424,403	17,88
424,773	-44,84
425,144	35,44
425,514	27,91
425,884	65,54
426,254	-34,81
426,624	-9,72
426,995	-9,72
427,365	70,56
427,735	-7,21
428,105	55,51
428,475	98,16
428,845	-7,21
429,214	68,05
429,584	22,89
429,954	60,52
430,324	90,63
430,694	47,98
431,063	90,63
431,433	7,84
431,803	-27,28
432,172	12,86
432,542	-9,72
432,911	-32,3
433,281	-9,72
433,65	-37,32
434,019	47,98
434,389	-47,35
434,758	35,44
435,127	-77,46
435,496	-2,2
435,866	-64,92
436,235	47,98
436,604	-4,7
436,973	53
437,342	-14,74
437,711	47,98
438,08	25,4
438,449	-19,76
438,817	17,88
439,186	2,82
439,555	100,67
439,924	78,09
440,292	-44,84
440,661	30,42
441,03	37,95
441,398	-4,7
441,767	55,51
442,135	12,86
442,503	-39,83
442,872	20,38
443,24	-132,65
443,609	78,09
443,977	-12,23
444,345	-22,27
444,713	-49,86
445,081	-64,92
445,449	-39,83
445,818	-39,83
446,186	-4,7
446,554	-112,58
446,921	63,03
447,289	-4,7
447,657	-187,85
448,025	-77,46
448,393	-24,77
448,761	-67,42
449,128	83,1
449,496	42,96
449,864	58,02
450,231	58,02
450,599	63,03
450,966	-22,27
451,334	-52,37
451,701	55,51
452,068	30,42
452,436	-57,39
452,803	-14,74
453,17	115,72
453,537	90,63
453,905	-17,25
454,272	63,03
454,639	-34,81
455,006	-54,88
455,373	32,93
455,74	47,98
456,107	63,03
456,473	83,1
456,84	-67,42
457,207	22,89
457,574	65,54
457,941	-52,37
458,307	128,26
458,674	32,93
459,04	-47,35
459,407	83,1
459,773	10,35
460,14	35,44
460,506	37,95
460,873	93,14
461,239	-12,23
461,605	-44,84
461,972	-115,09
462,338	25,4
462,704	-7,21
463,07	-34,81
463,436	-67,42
463,802	-120,11
464,168	-59,9
464,534	12,86
464,9	-122,62
465,266	-47,35
465,632	-54,88
465,997	58,02
466,363	17,88
466,729	-39,83
467,094	-22,27
467,46	-2,2
467,826	45,47
468,191	45,47
468,557	37,95
468,922	-49,86
469,288	-19,76
469,653	-59,9
470,018	-14,74
470,383	-9,72
470,749	-59,9
471,114	-62,41
471,479	-4,7
471,844	-4,7
472,209	83,1
472,574	63,03
472,939	-24,77
473,304	-49,86
473,669	35,44
474,034	-57,39
474,399	78,09
474,763	42,96
475,128	103,17
475,493	-207,92
475,857	37,95
476,222	10,35
476,587	-27,28
476,951	12,86
477,316	47,98
477,68	-14,74
478,044	2,82
478,409	2,82
478,773	-52,37
479,137	5,33
479,501	47,98
479,866	47,98
480,23	58,02
480,594	-24,77
480,958	17,88
481,322	-34,81
481,686	15,37
482,05	15,37
482,413	0,31
482,777	50,49
483,141	63,03
483,505	47,98
483,868	-2,2
484,232	10,35
484,596	-77,46
484,959	-12,23
485,323	15,37
485,686	-4,7
486,05	103,17
486,413	-32,3
486,776	-14,74
487,14	60,52
487,503	-42,34
487,866	-7,21
488,229	50,49
488,592	20,38
488,956	-37,32
489,319	-9,72
489,682	68,05
490,045	25,4
490,407	7,84
490,77	22,89
491,133	-24,77
491,496	75,58
491,859	0,31
492,221	-79,97
492,584	17,88
492,947	32,93
493,309	27,91
493,672	10,35
494,034	-12,23
494,396	10,35
494,759	-22,27
495,121	190,98
495,483	-37,32
495,846	-29,79
496,208	47,98
496,57	55,51
496,932	-7,21
497,294	53
497,656	-19,76
498,018	70,56
498,38	85,61
498,742	-42,34
499,104	17,88
499,466	0,31
499,827	55,51
500,189	53
500,551	-44,84
500,912	10,35
501,274	-24,77
501,636	90,63
501,997	-22,27
502,359	125,75
502,72	-59,9
503,081	-29,79
503,443	60,52
503,804	90,63
504,165	-29,79
504,526	35,44
504,887	70,56
505,249	27,91
505,61	83,1
505,971	-9,72
506,332	-4,7
506,692	135,79
507,053	80,6
507,414	-82,48
507,775	20,38
508,136	17,88
508,496	32,93
508,857	63,03
509,218	-19,76
509,578	22,89
509,939	60,52
510,299	12,86
510,66	12,86
511,02	-59,9
511,38	-102,55
511,741	58,02
512,101	-127,64
512,461	-12,23
512,821	68,05
513,181	70,56
513,541	-59,9
513,901	12,86
514,261	45,47
514,621	20,38
514,981	78,09
515,341	-49,86
515,701	-87,49
516,06	65,54
516,42	-42,34
516,78	-4,7
517,139	-64,92
517,499	2,82
517,859	65,54
518,218	30,42
518,577	42,96
518,937	2,82
519,296	37,95
519,655	-82,48
520,015	60,52
520,374	63,03
520,733	2,82
521,092	-9,72
521,451	-44,84
521,81	58,02
522,169	37,95
522,528	138,3
522,887	78,09
523,246	53
523,605	115,72
523,963	5,33
524,322	-9,72
524,681	70,56
525,039	-112,58
525,398	17,88
525,756	93,14
526,115	27,91
526,473	-17,25
526,832	15,37
527,19	15,37
527,548	47,98
527,906	20,38
528,265	27,91
528,623	-2,2
528,981	123,25
529,339	-24,77
529,697	27,91
530,055	-4,7
530,413	105,68
530,771	-27,28
531,128	-12,23
531,486	-105,06
531,844	55,51
532,202	15,37
532,559	63,03
532,917	35,44
533,274	80,6
533,632	90,63
533,989	-27,28
534,347	-32,3
534,704	115,72
535,061	70,56
535,419	118,23
535,776	-7,21
536,133	150,84
536,49	63,03
536,847	-90
537,204	30,42
537,561	2,82
537,918	5,33
538,275	88,12
538,632	158,37
538,989	35,44
539,346	-7,21
539,702	65,54
540,059	-14,74
540,415	10,35
540,772	83,1
541,129	-2,2
541,485	15,37
541,841	180,95
542,198	85,61
542,554	22,89
542,91	75,58
543,267	-77,46
543,623	-19,76
543,979	53
544,335	78,09
544,691	15,37
545,047	42,96
545,403	22,89
545,759	47,98
546,115	80,6
546,471	58,02
546,826	17,88
547,182	37,95
547,538	75,58
547,893	7,84
548,249	180,95
548,605	165,89
548,96	110,7
549,315	198,51
549,671	80,6
550,026	190,98
550,381	110,7
550,737	103,17
551,092	170,91
551,447	155,86
551,802	135,79
552,157	238,65
552,512	143,32
552,867	133,28
553,222	308,9
553,577	170,91
553,932	110,7
554,286	238,65
554,641	273,77
554,996	271,26
555,35	236,14
555,705	273,77
556,06	201,02
556,414	258,72
556,768	231,12
557,123	306,39
557,477	163,39
557,831	339
558,186	326,46
558,54	256,21
558,894	278,79
559,248	344,02
559,602	321,44
559,956	261,23
560,31	351,55
560,664	416,78
561,018	434,34
561,372	336,49
561,725	321,44
562,079	434,34
562,433	487,02
562,786	469,46
563,14	431,83
563,493	414,27
563,847	389,18
564,2	476,99
564,554	482
564,907	464,44
565,26	459,42
565,614	471,97
565,967	449,39
566,32	471,97
566,673	514,62
567,026	502,07
567,379	534,69
567,732	662,64
568,085	637,55
568,438	645,08
568,79	682,71
569,143	599,92
569,496	599,92
569,848	695,25
570,201	645,08
570,554	602,43
570,906	647,59
571,259	813,17
571,611	655,11
571,963	815,68
572,316	737,9
572,668	790,59
573,02	692,74
573,372	800,62
573,724	720,34
574,076	768,01
574,428	752,96
574,78	773,03
575,132	687,73
575,484	662,64
575,836	720,34
576,188	805,64
576,539	800,62
576,891	873,38
577,243	830,73
577,594	798,11
577,946	840,76
578,297	808,15
578,649	853,31
579	823,2
579,351	973,73
579,703	823,2
580,054	905,99
580,405	830,73
580,756	798,11
581,107	848,29
581,458	805,64
581,809	830,73
582,16	863,34
582,511	707,8
582,862	850,8
583,212	785,57
583,563	838,25
583,914	757,97
584,264	742,92
584,615	707,8
584,966	780,55
585,316	717,83
585,666	838,25
586,017	878,4
586,367	830,73
586,717	677,69
587,068	820,69
587,418	705,29
587,768	737,9
588,118	707,8
588,468	599,92
588,818	722,85
589,168	730,38
589,518	552,25
589,868	569,81
590,217	577,34
590,567	665,15
590,917	562,29
591,266	635,04
591,616	507,09
591,966	562,29
592,315	599,92
592,664	577,34
593,014	559,78
593,363	604,94
593,712	617,48
594,062	522,15
594,411	354,06
594,76	441,86
595,109	389,18
595,458	349,04
595,807	451,9
596,156	509,6
596,505	419,28
596,854	391,69
597,202	386,67
597,551	326,46
597,9	261,23
598,248	306,39
598,597	236,14
598,945	356,56
599,294	291,33
599,642	303,88
599,991	228,61
600,339	213,56
600,687	216,07
601,035	238,65
601,384	193,49
601,732	155,86
602,08	163,39
602,428	153,35
602,776	246,18
603,124	108,19
603,471	17,88
603,819	223,6
604,167	253,7
604,515	263,74
604,862	271,26
605,21	170,91
605,557	198,51
605,905	168,4
606,252	88,12
606,6	108,19
606,947	203,53
607,294	75,58
607,642	125,75
607,989	60,52
608,336	105,68
608,683	153,35
609,03	83,1
609,377	73,07
609,724	128,26
610,071	173,42
610,418	173,42
610,765	108,19
611,111	98,16
611,458	55,51
611,805	17,88
612,151	198,51
612,498	120,74
612,844	175,93
613,191	-12,23
613,537	70,56
613,883	130,77
614,23	93,14
614,576	198,51
614,922	-4,7
615,268	-29,79
615,614	125,75
615,96	113,21
616,306	115,72
616,652	130,77
616,998	75,58
617,344	47,98
617,689	123,25
618,035	73,07
618,381	153,35
618,726	-12,23
619,072	5,33
619,417	-67,42
619,763	32,93
620,108	93,14
620,453	80,6
620,799	153,35
621,144	47,98
621,489	68,05
621,834	27,91
622,179	-4,7
622,524	-57,39
622,869	155,86
623,214	140,81
623,559	-14,74
623,904	98,16
624,249	22,89
624,593	-24,77
624,938	45,47
625,283	15,37
625,627	-44,84
625,972	68,05
626,316	78,09
626,66	-24,77
627,005	-7,21
627,349	-22,27
627,693	60,52
628,037	65,54
628,382	32,93
628,726	17,88
629,07	105,68
629,414	47,98
629,757	95,65
630,101	47,98
630,445	20,38
630,789	27,91
631,133	-29,79
631,476	60,52
631,82	135,79
632,163	98,16
632,507	60,52
632,85	20,38
633,194	-67,42
633,537	-44,84
633,88	160,88
634,224	-47,35
634,567	-22,27
634,91	-7,21
635,253	83,1
635,596	100,67
635,939	68,05
636,282	55,51
636,625	47,98
636,967	7,84
637,31	-90
637,653	-4,7
637,996	35,44
638,338	120,74
638,681	10,35
639,023	32,93
639,366	20,38
639,708	-39,83
640,05	-57,39
640,393	98,16
640,735	-32,3
641,077	83,1
641,419	78,09
641,761	-37,32
642,103	-29,79
642,445	50,49
642,787	2,82
643,129	45,47
643,471	-62,41
643,812	-100,04
644,154	80,6
644,496	2,82
644,837	17,88
645,179	25,4
645,52	35,44
645,862	63,03
646,203	-82,48
646,544	-44,84
646,886	113,21
647,227	-17,25
647,568	73,07
647,909	155,86
648,25	-39,83
648,591	53
648,932	12,86
649,273	-32,3
649,614	55,51
649,954	-29,79
650,295	-67,42
650,636	27,91
650,976	60,52
651,317	45,47
651,657	-57,39
651,998	-62,41
652,338	-34,81
652,679	32,93
653,019	25,4
653,359	47,98
653,699	80,6
654,039	27,91
654,379	32,93
654,719	-12,23
655,059	-4,7
655,399	-14,74
655,739	0,31
656,079	-27,28
656,419	80,6
656,758	-19,76
657,098	-39,83
657,437	-44,84
657,777	78,09
658,116	50,49
658,456	-57,39
658,795	-130,14
659,135	-2,2
659,474	-19,76
659,813	47,98
660,152	83,1
660,491	-24,77
660,83	-79,97
661,169	-95,02
661,508	-14,74
661,847	17,88
662,186	45,47
662,524	-4,7
662,863	-34,81
663,202	15,37
663,54	-29,79
663,879	53
664,217	-2,2
664,556	55,51
664,894	27,91
665,233	45,47
665,571	27,91
665,909	-24,77
666,247	65,54
666,585	100,67
666,923	10,35
667,261	40,45
667,599	78,09
667,937	-97,53
668,275	30,42
668,613	-24,77
668,95	-27,28
669,288	65,54
669,626	-72,44
669,963	17,88
670,301	0,31
670,638	-77,46
670,975	-22,27
671,313	40,45
671,65	-44,84
671,987	-57,39
672,324	58,02
672,661	5,33
672,998	-4,7
673,335	30,42
673,672	58,02
674,009	-39,83
674,346	78,09
674,683	63,03
675,019	0,31
675,356	45,47
675,693	-127,64
676,029	-74,95
676,366	-37,32
676,702	42,96
677,039	-34,81
677,375	7,84
677,711	2,82
678,047	7,84
678,383	2,82
678,72	-62,41
679,056	65,54
679,392	-42,34
679,727	50,49
680,063	-32,3
680,399	-69,93
680,735	100,67
681,071	15,37
681,406	12,86
681,742	35,44
682,077	58,02
682,413	83,1
682,748	120,74
683,084	12,86
683,419	2,82
683,754	50,49
684,089	-27,28
684,424	103,17
684,76	37,95
685,095	2,82
685,429	-44,84
685,764	-42,34
686,099	-2,2
686,434	-4,7
686,769	68,05
687,103	-79,97
687,438	-24,77
687,773	-19,76
688,107	22,89
688,442	75,58
688,776	-44,84
689,11	42,96
689,445	20,38
689,779	-27,28
690,113	53
690,447	148,33
690,781	103,17
691,115	-52,37
691,449	12,86
691,783	-7,21
692,117	15,37
692,451	42,96
692,784	-24,77
693,118	32,93
693,452	-112,58
693,785	-12,23
694,119	42,96
694,452	-24,77
694,786	-17,25
695,119	-44,84
695,452	20,38
695,785	32,93
696,118	-2,2
696,452	2,82
696,785	32,93
697,118	-69,93
697,45	63,03
697,783	10,35
698,116	22,89
698,449	-52,37
698,782	108,19
699,114	22,89
699,447	65,54
699,779	-17,25
700,112	-9,72
700,444	15,37
700,776	7,84
701,109	-34,81
701,441	-7,21
701,773	-19,76
702,105	128,26
702,437	-24,77
702,769	7,84
703,101	-7,21
703,433	-90
703,765	-54,88
704,097	-147,71
704,428	35,44
704,76	-37,32
705,092	145,82
705,423	20,38
705,755	-52,37
706,086	50,49
706,417	123,25
706,749	40,45
707,08	88,12
707,411	-100,04
707,742	138,3
708,073	-2,2
708,404	37,95
708,735	35,44
709,066	0,31
709,397	25,4
709,728	-4,7
710,059	105,68
710,389	-32,3
710,72	17,88
711,05	50,49
711,381	32,93
711,711	-47,35
712,042	20,38
712,372	-130,14
712,702	7,84
713,033	98,16
713,363	47,98
713,693	190,98
714,023	15,37
714,353	75,58
714,683	0,31
715,013	-39,83
715,342	73,07
715,672	55,51
716,002	45,47
716,331	-84,99
716,661	40,45
716,99	63,03
717,32	53
717,649	-24,77
717,979	-39,83
718,308	22,89
718,637	27,91
718,966	7,84
719,295	-112,58
719,624	45,47
719,953	37,95
720,282	-9,72
720,611	-115,09
720,94	-4,7
721,269	25,4
721,597	70,56
721,926	158,37
722,254	22,89
722,583	15,37
722,911	78,09
723,24	-7,21
723,568	15,37
723,896	73,07
724,225	-14,74
724,553	50,49
724,881	42,96
725,209	20,38
725,537	-17,25
725,865	-19,76
726,193	20,38
726,52	-12,23
726,848	-39,83
727,176	-17,25
727,503	-120,11
727,831	-32,3
728,158	45,47
728,486	-7,21
728,813	-7,21
729,14	-54,88
729,468	30,42
729,795	-52,37
730,122	-87,49
730,449	-57,39
730,776	-37,32
731,103	27,91
731,43	-49,86
731,757	2,82
732,084	42,96
732,41	42,96
732,737	0,31
733,064	-44,84
733,39	-12,23
733,717	-2,2
734,043	-42,34
734,369	-19,76
734,696	45,47
735,022	-130,14
735,348	65,54
735,674	-95,02
736	17,88
736,326	2,82
736,652	-145,2
736,978	17,88
737,304	-59,9
737,63	-9,72
737,955	-12,23
738,281	27,91
738,607	30,42
738,932	-37,32
739,258	88,12
739,583	35,44
739,908	-34,81
740,234	65,54
740,559	37,95
740,884	-4,7
741,209	-14,74
741,534	0,31
741,859	30,42
742,184	90,63
742,509	2,82
742,834	17,88
743,158	25,4
743,483	85,61
743,808	-2,2
744,132	-67,42
744,457	-49,86
744,781	-117,6
745,106	-7,21
745,43	25,4
745,754	78,09
746,078	-62,41
746,402	2,82
746,727	-37,32
747,051	-130,14
747,375	5,33
747,698	140,81
748,022	78,09
748,346	27,91
748,67	105,68
748,993	-122,62
749,317	63,03
749,64	-4,7
749,964	0,31
750,287	32,93
750,611	-39,83
750,934	-27,28
751,257	-29,79
751,58	63,03
751,903	-2,2
752,226	-37,32
752,549	-2,2
752,872	-2,2
753,195	7,84
753,518	70,56
753,841	-32,3
754,163	-79,97
754,486	0,31
754,809	35,44
755,131	10,35
755,453	15,37
755,776	73,07
756,098	53
756,42	-32,3
756,743	78,09
757,065	45,47
757,387	-17,25
757,709	7,84
758,031	-59,9
758,352	-74,95
758,674	15,37
758,996	17,88
759,318	-29,79
759,639	-42,34
759,961	-7,21
760,282	27,91
760,604	-4,7
760,925	-17,25
761,247	-44,84
761,568	-22,27
761,889	-29,79
762,21	42,96
762,531	7,84
762,852	20,38
763,173	-4,7
763,494	-59,9
763,815	68,05
764,136	-69,93
764,456	-2,2
764,777	-57,39
765,098	-32,3
765,418	135,79
765,738	50,49
766,059	25,4
766,379	-7,21
766,699	-74,95
767,02	-2,2
767,34	-14,74
767,66	15,37
767,98	12,86
768,3	-39,83
768,62	35,44
768,94	0,31
769,259	25,4
769,579	-17,25
769,899	-32,3
770,218	-44,84
770,538	-4,7
770,857	-54,88
771,177	58,02
771,496	-4,7
771,815	-32,3
772,134	135,79
772,454	-130,14
772,773	-54,88
773,092	-19,76
773,411	90,63
773,729	22,89
774,048	-49,86
774,367	10,35
774,686	32,93
775,004	88,12
775,323	68,05
775,642	-47,35
775,96	10,35
776,278	-102,55
776,597	90,63
776,915	60,52
777,233	-102,55
777,551	10,35
777,869	25,4
778,187	150,84
778,505	53
778,823	5,33
779,141	40,45
779,459	-117,6
779,777	45,47
780,094	-7,21
780,412	27,91
780,729	-100,04
781,047	123,25
781,364	-62,41
781,681	-107,57
781,999	-24,77
782,316	45,47
782,633	-47,35
782,95	-14,74
783,267	53
783,584	40,45
783,901	27,91
784,218	-137,67
784,534	53
784,851	-77,46
785,168	-59,9
785,484	-49,86
785,801	-27,28
786,117	-7,21
786,434	12,86
786,75	-47,35
787,066	-34,81
787,382	-32,3
787,698	27,91
788,014	32,93
788,33	2,82
788,646	5,33
788,962	-4,7
789,278	5,33
789,594	-37,32
789,909	7,84
790,225	-44,84
790,541	10,35
790,856	55,51
791,171	42,96
791,487	-140,18
