Data from Subt2_15-18-28-893.txt Node
Date: Thu Dec 06 15:18:28 CET 2018
User: Artur
Spectrometer: FLMS13639
Trigger mode: 0
Integration Time (sec): 1,000000E-1
Scans to average: 1
Electric dark correction enabled: true
Nonlinearity correction enabled: false
Boxcar width: 0
XAxis mode: Wavelengths
Number of Pixels in Spectrum: 2048
>>>>>Begin Spectral Data<<<<<
339,73	-1,88
340,109	-1,88
340,488	-1,88
340,866	60,84
341,245	40,77
341,624	-1,88
342,002	-9,41
342,381	50,8
342,759	-31,99
343,138	-87,18
343,516	-39,51
343,894	58,33
344,273	38,26
344,651	60,84
345,029	8,15
345,408	-16,93
345,786	5,64
346,164	55,82
346,542	-72,13
346,92	20,7
347,298	-39,51
347,676	20,7
348,054	-14,43
348,432	78,4
348,81	88,44
349,188	-26,97
349,566	88,44
349,944	15,68
350,322	55,82
350,699	55,82
351,077	-34,5
351,455	-57,08
351,832	-14,43
352,21	85,93
352,588	70,87
352,965	45,79
353,343	-14,43
353,72	65,86
354,098	0,63
354,475	58,33
354,852	-79,65
355,23	141,12
355,607	90,94
355,984	53,31
356,361	100,98
356,739	18,19
357,116	33,24
357,493	-6,9
357,87	40,77
358,247	13,17
358,624	78,4
359,001	-6,9
359,378	65,86
359,755	-11,92
360,132	85,93
360,508	116,03
360,885	-31,99
361,262	-124,81
361,639	-4,39
362,015	90,94
362,392	-69,62
362,769	-62,09
363,145	40,77
363,522	-84,67
363,898	-1,88
364,275	38,26
364,651	-84,67
365,028	-11,92
365,404	-19,44
365,78	103,49
366,157	68,36
366,533	40,77
366,909	106
367,285	13,17
367,661	8,15
368,038	-14,43
368,414	58,33
368,79	-74,64
369,166	111,01
369,542	85,93
369,918	55,82
370,294	48,29
370,669	10,66
371,045	-31,99
371,421	-54,57
371,797	40,77
372,172	-49,55
372,548	78,4
372,924	-54,57
373,299	80,91
373,675	-112,27
374,05	38,26
374,426	5,64
374,801	55,82
375,177	-21,95
375,552	-14,43
375,928	18,19
376,303	75,89
376,678	-19,44
377,053	-16,93
377,429	70,87
377,804	-77,15
378,179	25,72
378,554	18,19
378,929	-59,58
379,304	-102,23
379,679	-1,88
380,054	-34,5
380,429	28,22
380,804	-72,13
381,179	-59,58
381,553	-14,43
381,928	15,68
382,303	-147,39
382,678	70,87
383,052	-31,99
383,427	-64,6
383,801	75,89
384,176	68,36
384,551	-77,15
384,925	30,73
385,299	-59,58
385,674	20,7
386,048	18,19
386,422	-21,95
386,797	-1,88
387,171	-6,9
387,545	-26,97
387,919	0,63
388,293	-59,58
388,668	-9,41
389,042	5,64
389,416	-39,51
389,79	88,44
390,164	-52,06
390,537	43,28
390,911	20,7
391,285	58,33
391,659	3,14
392,033	-19,44
392,406	-19,44
392,78	33,24
393,154	-29,48
393,527	-87,18
393,901	68,36
394,274	18,19
394,648	83,42
395,021	-47,04
395,395	25,72
395,768	-4,39
396,142	18,19
396,515	-16,93
396,888	23,21
397,261	-9,41
397,635	-24,46
398,008	88,44
398,381	78,4
398,754	63,35
399,127	18,19
399,5	-24,46
399,873	-49,55
400,246	-24,46
400,619	48,29
400,991	25,72
401,364	25,72
401,737	-77,15
402,11	-39,51
402,482	-107,25
402,855	-69,62
403,228	-99,72
403,6	3,14
403,973	-72,13
404,345	116,03
404,718	18,19
405,09	8,15
405,463	-1,88
405,835	-16,93
406,207	50,8
406,58	38,26
406,952	3,14
407,324	5,64
407,696	-1,88
408,068	-6,9
408,44	-26,97
408,812	8,15
409,184	-29,48
409,556	95,96
409,928	-54,57
410,3	0,63
410,672	33,24
411,044	-67,11
411,416	75,89
411,787	50,8
412,159	-52,06
412,531	50,8
412,902	25,72
413,274	-44,53
413,645	3,14
414,017	25,72
414,388	63,35
414,76	60,84
415,131	25,72
415,503	-19,44
415,874	20,7
416,245	30,73
416,616	43,28
416,987	20,7
417,359	-26,97
417,73	-62,09
418,101	23,21
418,472	176,24
418,843	48,29
419,214	18,19
419,585	40,77
419,956	-6,9
420,326	-24,46
420,697	90,94
421,068	-19,44
421,439	-11,92
421,809	-16,93
422,18	-34,5
422,551	-97,22
422,921	33,24
423,292	35,75
423,662	-1,88
424,033	35,75
424,403	10,66
424,773	-21,95
425,144	55,82
425,514	-26,97
425,884	35,75
426,254	3,14
426,624	-21,95
426,995	85,93
427,365	50,8
427,735	80,91
428,105	20,7
428,475	-57,08
428,845	-4,39
429,214	-11,92
429,584	33,24
429,954	3,14
430,324	30,73
430,694	75,89
431,063	5,64
431,433	55,82
431,803	40,77
432,172	-6,9
432,542	40,77
432,911	15,68
433,281	5,64
433,65	-26,97
434,019	13,17
434,389	13,17
434,758	-39,51
435,127	-54,57
435,496	18,19
435,866	-1,88
436,235	-29,48
436,604	8,15
436,973	10,66
437,342	53,31
437,711	-54,57
438,08	28,22
438,449	63,35
438,817	-11,92
439,186	-67,11
439,555	50,8
439,924	30,73
440,292	43,28
440,661	30,73
441,03	60,84
441,398	53,31
441,767	38,26
442,135	33,24
442,503	-47,04
442,872	18,19
443,24	-42,02
443,609	-29,48
443,977	3,14
444,345	-9,41
444,713	15,68
445,081	13,17
445,449	-21,95
445,818	-42,02
446,186	43,28
446,554	-54,57
446,921	8,15
447,289	15,68
447,657	-117,29
448,025	38,26
448,393	0,63
448,761	-14,43
449,128	15,68
449,496	85,93
449,864	88,44
450,231	78,4
450,599	20,7
450,966	-4,39
451,334	-14,43
451,701	68,36
452,068	-39,51
452,436	58,33
452,803	40,77
453,17	116,03
453,537	-1,88
453,905	-72,13
454,272	55,82
454,639	-82,16
455,006	-89,69
455,373	8,15
455,74	-37
456,107	30,73
456,473	121,05
456,84	33,24
457,207	33,24
457,574	20,7
457,941	-72,13
458,307	183,77
458,674	60,84
459,04	-72,13
459,407	33,24
459,773	28,22
460,14	20,7
460,506	33,24
460,873	63,35
461,239	-69,62
461,605	-29,48
461,972	-117,29
462,338	-4,39
462,704	-9,41
463,07	-42,02
463,436	-11,92
463,802	-114,78
464,168	5,64
464,534	-47,04
464,9	-134,85
465,266	-107,25
465,632	-44,53
465,997	121,05
466,363	100,98
466,729	-24,46
467,094	65,86
467,46	-34,5
467,826	-52,06
468,191	-87,18
468,557	25,72
468,922	-54,57
469,288	5,64
469,653	-26,97
470,018	45,79
470,383	-19,44
470,749	15,68
471,114	-124,81
471,479	18,19
471,844	-9,41
472,209	138,61
472,574	10,66
472,939	55,82
473,304	3,14
473,669	38,26
474,034	-59,58
474,399	43,28
474,763	65,86
475,128	121,05
475,493	-59,58
475,857	28,22
476,222	113,52
476,587	-14,43
476,951	63,35
477,316	33,24
477,68	3,14
478,044	25,72
478,409	70,87
478,773	-87,18
479,137	-64,6
479,501	53,31
479,866	50,8
480,23	143,63
480,594	-16,93
480,958	30,73
481,322	-24,46
481,686	23,21
482,05	90,94
482,413	-69,62
482,777	-77,15
483,141	5,64
483,505	-6,9
483,868	13,17
484,232	28,22
484,596	-39,51
484,959	-14,43
485,323	65,86
485,686	23,21
486,05	98,47
486,413	-82,16
486,776	-94,71
487,14	65,86
487,503	-52,06
487,866	-42,02
488,229	-52,06
488,592	35,75
488,956	-4,39
489,319	28,22
489,682	50,8
490,045	55,82
490,407	-79,65
490,77	50,8
491,133	50,8
491,496	113,52
491,859	10,66
492,221	-21,95
492,584	73,38
492,947	38,26
493,309	-11,92
493,672	-87,18
494,034	123,56
494,396	-11,92
494,759	23,21
495,121	78,4
495,483	45,79
495,846	78,4
496,208	38,26
496,57	138,61
496,932	33,24
497,294	-34,5
497,656	-79,65
498,018	25,72
498,38	133,59
498,742	35,75
499,104	0,63
499,466	-11,92
499,827	-44,53
500,189	18,19
500,551	5,64
500,912	118,54
501,274	65,86
501,636	70,87
501,997	15,68
502,359	65,86
502,72	-69,62
503,081	116,03
503,443	-21,95
503,804	111,01
504,165	60,84
504,526	-1,88
504,887	15,68
505,249	-1,88
505,61	118,54
505,971	78,4
506,332	33,24
506,692	70,87
507,053	30,73
507,414	-79,65
507,775	5,64
508,136	78,4
508,496	-21,95
508,857	78,4
509,218	-1,88
509,578	90,94
509,939	133,59
510,299	-44,53
510,66	35,75
511,02	-44,53
511,38	-52,06
511,741	-14,43
512,101	-149,9
512,461	35,75
512,821	30,73
513,181	148,65
513,541	-19,44
513,901	103,49
514,261	100,98
514,621	-62,09
514,981	43,28
515,341	-11,92
515,701	60,84
516,06	83,42
516,42	-26,97
516,78	128,58
517,139	-49,55
517,499	-1,88
517,859	65,86
518,218	98,47
518,577	40,77
518,937	-6,9
519,296	28,22
519,655	15,68
520,015	-49,55
520,374	38,26
520,733	30,73
521,092	43,28
521,451	-49,55
521,81	113,52
522,169	83,42
522,528	128,58
522,887	121,05
523,246	3,14
523,605	88,44
523,963	50,8
524,322	60,84
524,681	-11,92
525,039	3,14
525,398	35,75
525,756	83,42
526,115	-11,92
526,473	-102,23
526,832	18,19
527,19	60,84
527,548	111,01
527,906	48,29
528,265	55,82
528,623	50,8
528,981	8,15
529,339	18,19
529,697	38,26
530,055	-14,43
530,413	78,4
530,771	-26,97
531,128	70,87
531,486	-14,43
531,844	65,86
532,202	-1,88
532,559	20,7
532,917	63,35
533,274	90,94
533,632	111,01
533,989	116,03
534,347	43,28
534,704	146,14
535,061	78,4
535,419	133,59
535,776	10,66
536,133	161,19
536,49	95,96
536,847	15,68
537,204	68,36
537,561	28,22
537,918	8,15
538,275	141,12
538,632	75,89
538,989	80,91
539,346	118,54
539,702	123,56
540,059	58,33
540,415	30,73
540,772	33,24
541,129	158,68
541,485	156,17
541,841	168,72
542,198	113,52
542,554	60,84
542,91	63,35
543,267	20,7
543,623	10,66
543,979	88,44
544,335	78,4
544,691	70,87
545,047	148,65
545,403	133,59
545,759	28,22
546,115	88,44
546,471	133,59
546,826	18,19
547,182	128,58
547,538	188,79
547,893	88,44
548,249	178,75
548,605	186,28
548,96	126,07
549,315	241,47
549,671	226,42
550,026	246,49
550,381	121,05
550,737	116,03
551,092	314,23
551,447	266,56
551,802	281,61
552,157	218,89
552,512	226,42
552,867	276,6
553,222	346,84
553,577	269,07
553,932	246,49
554,286	306,7
554,641	392
554,996	291,65
555,35	171,23
555,705	376,95
556,06	366,91
556,414	319,25
556,768	349,35
557,123	434,65
557,477	437,16
557,831	397,02
558,186	447,19
558,54	417,09
558,894	449,7
559,248	482,32
559,602	392
559,956	366,91
560,31	487,34
560,664	492,35
561,018	555,07
561,372	434,65
561,725	497,37
562,079	397,02
562,433	650,41
562,786	572,63
563,14	542,53
563,493	552,56
563,847	562,6
564,2	725,67
564,554	670,48
564,907	695,57
565,26	685,53
565,614	705,6
565,967	615,28
566,32	657,93
566,673	735,71
567,026	713,13
567,379	723,16
567,732	775,85
568,085	853,62
568,438	878,71
568,79	861,15
569,143	685,53
569,496	913,83
569,848	861,15
570,201	994,11
570,554	843,59
570,906	974,04
571,259	1142,13
571,611	888,74
571,963	1031,75
572,316	1031,75
572,668	946,45
573,02	1044,29
573,372	1059,34
573,724	1079,41
574,076	971,53
574,428	989,1
574,78	1147,15
575,132	1104,5
575,484	1029,24
575,836	979,06
576,188	1124,57
576,539	1109,52
576,891	1157,19
577,243	1054,33
577,594	1039,27
577,946	1112,03
578,297	1270,08
578,649	1142,13
579	1096,97
579,351	1194,82
579,703	1192,31
580,054	1214,89
580,405	1076,9
580,756	1172,24
581,107	1147,15
581,458	1117,05
581,809	1202,34
582,16	1169,73
582,511	1086,94
582,862	1137,12
583,212	1109,52
583,563	1167,22
583,914	1049,31
584,264	1039,27
584,615	916,34
584,966	999,13
585,316	1099,48
585,666	1109,52
586,017	984,08
586,367	1051,82
586,717	1029,24
587,068	994,11
587,418	979,06
587,768	976,55
588,118	916,34
588,468	848,6
588,818	956,48
589,168	948,96
589,518	868,67
589,868	881,22
590,217	828,53
590,567	748,25
590,917	587,69
591,266	678
591,616	705,6
591,966	778,36
592,315	723,16
592,664	798,43
593,014	738,22
593,363	600,23
593,712	662,95
594,062	595,21
594,411	577,65
594,76	567,62
595,109	640,37
595,458	620,3
595,807	650,41
596,156	547,55
596,505	527,48
596,854	494,86
597,202	437,16
597,551	412,07
597,9	356,88
598,248	467,26
598,597	414,58
598,945	587,69
599,294	439,67
599,642	366,91
599,991	301,68
600,339	238,96
600,687	256,53
601,035	339,32
601,384	291,65
601,732	294,16
602,08	279,1
602,428	221,4
602,776	296,67
603,124	228,93
603,471	158,68
603,819	299,17
604,167	359,39
604,515	291,65
604,862	256,53
605,21	231,44
605,557	223,91
605,905	226,42
606,252	198,82
606,6	226,42
606,947	213,88
607,294	153,66
607,642	221,4
607,989	106
608,336	216,38
608,683	218,89
609,03	203,84
609,377	158,68
609,724	111,01
610,071	186,28
610,418	228,93
610,765	201,33
611,111	98,47
611,458	93,45
611,805	176,24
612,151	153,66
612,498	98,47
612,844	173,73
613,191	78,4
613,537	126,07
613,883	133,59
614,23	143,63
614,576	158,68
614,922	70,87
615,268	70,87
615,614	133,59
615,96	38,26
616,306	138,61
616,652	113,52
616,998	83,42
617,344	118,54
617,689	78,4
618,035	186,28
618,381	126,07
618,726	23,21
619,072	45,79
619,417	0,63
619,763	35,75
620,108	25,72
620,453	-6,9
620,799	70,87
621,144	143,63
621,489	75,89
621,834	50,8
622,179	123,56
622,524	28,22
622,869	133,59
623,214	186,28
623,559	73,38
623,904	18,19
624,249	10,66
624,593	5,64
624,938	166,21
625,283	35,75
625,627	-87,18
625,972	198,82
626,316	60,84
626,66	-14,43
627,005	-29,48
627,349	18,19
627,693	85,93
628,037	63,35
628,382	70,87
628,726	68,36
629,07	43,28
629,414	55,82
629,757	35,75
630,101	88,44
630,445	208,86
630,789	28,22
631,133	5,64
631,476	70,87
631,82	181,26
632,163	198,82
632,507	68,36
632,85	-19,44
633,194	48,29
633,537	8,15
633,88	181,26
634,224	-11,92
634,567	68,36
634,91	-67,11
635,253	75,89
635,596	-16,93
635,939	28,22
636,282	58,33
636,625	30,73
636,967	40,77
637,31	68,36
637,653	-9,41
637,996	58,33
638,338	158,68
638,681	3,14
639,023	53,31
639,366	73,38
639,708	73,38
640,05	-77,15
640,393	-4,39
640,735	40,77
641,077	111,01
641,419	166,21
641,761	85,93
642,103	-29,48
642,445	23,21
642,787	-37
643,129	75,89
643,471	45,79
643,812	-47,04
644,154	-6,9
644,496	8,15
644,837	85,93
645,179	15,68
645,52	-11,92
645,862	45,79
646,203	-42,02
646,544	-49,55
646,886	80,91
647,227	-4,39
647,568	116,03
647,909	143,63
648,25	-16,93
648,591	-37
648,932	45,79
649,273	40,77
649,614	-4,39
649,954	-102,23
650,295	-26,97
650,636	60,84
650,976	98,47
651,317	116,03
651,657	-42,02
651,998	53,31
652,338	-16,93
652,679	8,15
653,019	60,84
653,359	-14,43
653,699	143,63
654,039	-26,97
654,379	50,8
654,719	-1,88
655,059	30,73
655,399	-1,88
655,739	53,31
656,079	-16,93
656,419	88,44
656,758	73,38
657,098	-16,93
657,437	-57,08
657,777	53,31
658,116	30,73
658,456	-114,78
658,795	-87,18
659,135	23,21
659,474	25,72
659,813	-57,08
660,152	-34,5
660,491	-107,25
660,83	13,17
661,169	-29,48
661,508	53,31
661,847	-79,65
662,186	55,82
662,524	38,26
662,863	-107,25
663,202	25,72
663,54	-1,88
663,879	40,77
664,217	60,84
664,556	75,89
664,894	30,73
665,233	-24,46
665,571	78,4
665,909	-6,9
666,247	-79,65
666,585	28,22
666,923	25,72
667,261	-4,39
667,599	123,56
667,937	-31,99
668,275	-34,5
668,613	80,91
668,95	-34,5
669,288	58,33
669,626	20,7
669,963	75,89
670,301	18,19
670,638	-24,46
670,975	-64,6
671,313	93,45
671,65	10,66
671,987	-42,02
672,324	-24,46
672,661	0,63
672,998	-1,88
673,335	-11,92
673,672	50,8
674,009	-94,71
674,346	108,51
674,683	60,84
675,019	80,91
675,356	-47,04
675,693	-44,53
676,029	68,36
676,366	8,15
676,702	68,36
677,039	-14,43
677,375	35,75
677,711	-49,55
678,047	-29,48
678,383	85,93
678,72	-54,57
679,056	60,84
679,392	18,19
679,727	98,47
680,063	15,68
680,399	-14,43
680,735	83,42
681,071	5,64
681,406	-52,06
681,742	10,66
682,077	-14,43
682,413	70,87
682,748	111,01
683,084	-109,76
683,419	-16,93
683,754	45,79
684,089	-1,88
684,424	23,21
684,76	-87,18
685,095	-72,13
685,429	30,73
685,764	5,64
686,099	80,91
686,434	5,64
686,769	63,35
687,103	-16,93
687,438	20,7
687,773	-31,99
688,107	40,77
688,442	15,68
688,776	-1,88
689,11	73,38
689,445	-24,46
689,779	-47,04
690,113	45,79
690,447	20,7
690,781	8,15
691,115	-59,58
691,449	28,22
691,783	-9,41
692,117	38,26
692,451	40,77
692,784	18,19
693,118	73,38
693,452	-6,9
693,785	-79,65
694,119	63,35
694,452	-52,06
694,786	-29,48
695,119	-14,43
695,452	-31,99
695,785	-9,41
696,118	45,79
696,452	58,33
696,785	35,75
697,118	20,7
697,45	-21,95
697,783	0,63
698,116	-19,44
698,449	-9,41
698,782	58,33
699,114	-1,88
699,447	28,22
699,779	58,33
700,112	98,47
700,444	75,89
700,776	53,31
701,109	28,22
701,441	-64,6
701,773	-24,46
702,105	65,86
702,437	68,36
702,769	15,68
703,101	15,68
703,433	-24,46
703,765	65,86
704,097	-59,58
704,428	50,8
704,76	0,63
705,092	70,87
705,423	15,68
705,755	43,28
706,086	48,29
706,417	93,45
706,749	-47,04
707,08	35,75
707,411	0,63
707,742	103,49
708,073	-19,44
708,404	85,93
708,735	5,64
709,066	28,22
709,397	33,24
709,728	-11,92
710,059	136,1
710,389	15,68
710,72	73,38
711,05	65,86
711,381	0,63
711,711	0,63
712,042	60,84
712,372	-64,6
712,702	50,8
713,033	73,38
713,363	93,45
713,693	173,73
714,023	45,79
714,353	68,36
714,683	43,28
715,013	-49,55
715,342	10,66
715,672	50,8
716,002	48,29
716,331	-16,93
716,661	23,21
716,99	23,21
717,32	113,52
717,649	48,29
717,979	-24,46
718,308	-14,43
718,637	30,73
718,966	-6,9
719,295	20,7
719,624	60,84
719,953	-14,43
720,282	-47,04
720,611	-52,06
720,94	98,47
721,269	63,35
721,597	111,01
721,926	111,01
722,254	10,66
722,583	3,14
722,911	43,28
723,24	-21,95
723,568	18,19
723,896	33,24
724,225	-79,65
724,553	10,66
724,881	45,79
725,209	38,26
725,537	38,26
725,865	-26,97
726,193	68,36
726,52	0,63
726,848	-34,5
727,176	-52,06
727,503	-47,04
727,831	13,17
728,158	73,38
728,486	-9,41
728,813	33,24
729,14	-11,92
729,468	13,17
729,795	-31,99
730,122	-87,18
730,449	18,19
730,776	121,05
731,103	30,73
731,43	-107,25
731,757	-52,06
732,084	78,4
732,41	73,38
732,737	-21,95
733,064	58,33
733,39	70,87
733,717	23,21
734,043	-16,93
734,369	75,89
734,696	28,22
735,022	-6,9
735,348	106
735,674	13,17
736	95,96
736,326	151,16
736,652	-127,32
736,978	-4,39
737,304	-29,48
737,63	40,77
737,955	-6,9
738,281	-16,93
738,607	5,64
738,932	-47,04
739,258	48,29
739,583	-34,5
739,908	35,75
740,234	75,89
740,559	53,31
740,884	-24,46
741,209	-4,39
741,534	-29,48
741,859	-44,53
742,184	106
742,509	-64,6
742,834	65,86
743,158	-67,11
743,483	40,77
743,808	-19,44
744,132	75,89
744,457	-44,53
744,781	-62,09
745,106	-11,92
745,43	8,15
745,754	60,84
746,078	40,77
746,402	35,75
746,727	-4,39
747,051	-97,22
747,375	118,54
747,698	53,31
748,022	-24,46
748,346	55,82
748,67	143,63
748,993	-144,88
749,317	45,79
749,64	80,91
749,964	-54,57
750,287	3,14
750,611	-119,8
750,934	-69,62
751,257	-62,09
751,58	90,94
751,903	38,26
752,226	-97,22
752,549	18,19
752,872	8,15
753,195	8,15
753,518	83,42
753,841	-19,44
754,163	13,17
754,486	-26,97
754,809	58,33
755,131	78,4
755,453	3,14
755,776	131,09
756,098	55,82
756,42	45,79
756,743	78,4
757,065	106
757,387	38,26
757,709	75,89
758,031	-69,62
758,352	5,64
758,674	-24,46
758,996	13,17
759,318	111,01
759,639	48,29
759,961	55,82
760,282	50,8
760,604	-54,57
760,925	23,21
761,247	-29,48
761,568	-49,55
761,889	3,14
762,21	-59,58
762,531	5,64
762,852	28,22
763,173	83,42
763,494	-47,04
763,815	-42,02
764,136	-44,53
764,456	-1,88
764,777	18,19
765,098	0,63
765,418	83,42
765,738	15,68
766,059	-1,88
766,379	20,7
766,699	43,28
767,02	-47,04
767,34	25,72
767,66	-47,04
767,98	-16,93
768,3	65,86
768,62	-69,62
768,94	30,73
769,259	-4,39
769,579	50,8
769,899	15,68
770,218	-72,13
770,538	-26,97
770,857	65,86
771,177	18,19
771,496	-69,62
771,815	-69,62
772,134	30,73
772,454	-14,43
772,773	33,24
773,092	23,21
773,411	-16,93
773,729	-52,06
774,048	50,8
774,367	10,66
774,686	65,86
775,004	45,79
775,323	35,75
775,642	-1,88
775,96	93,45
776,278	-74,64
776,597	65,86
776,915	60,84
777,233	18,19
777,551	93,45
777,869	65,86
778,187	111,01
778,505	38,26
778,823	-39,51
779,141	78,4
779,459	-59,58
779,777	93,45
780,094	13,17
780,412	58,33
780,729	55,82
781,047	58,33
781,364	-57,08
781,681	-42,02
781,999	-39,51
782,316	80,91
782,633	8,15
782,95	33,24
783,267	-14,43
783,584	-26,97
783,901	58,33
784,218	-42,02
784,534	28,22
784,851	0,63
785,168	-21,95
785,484	-14,43
785,801	10,66
786,117	-11,92
786,434	-11,92
786,75	63,35
787,066	-19,44
787,382	-11,92
787,698	88,44
788,014	65,86
788,33	20,7
788,646	53,31
788,962	13,17
789,278	63,35
789,594	10,66
789,909	-1,88
790,225	30,73
